#Acq. time (s)=	1
#Accumulations=	1
#Range (nm)=	535...800
#Windows=	6
#Auto scanning=	Off
#Autofocus=	Off
#AutoExposure=	Off
#Spike filter=	Off
#Delay time (s)=	0
#Binning=	1
#Readout mode=	Signal
#DeNoise=	Off
#ICS correction=	Off
#Dark correction=	Off
#Inst. Process=	Off
#Detector temperature (°C)=	-60.16
#Instrument=	LabRAM HR Evol
#Detector=	Syncerity OE
#Objective=	x100_VIS
#Grating=	600 (500nm)
#ND Filter=	10%
#Laser=	532nm_Edge
#Hole=	300.003
#Range=	Visible
#AFM=	Off
#Laser. Pol.=	HWPL-VIS
#Raman. Pol.=	P-350/2300
#Laser Pol. (°)=	180
#Raman Pol. (°)=	130
#StageXY (mm)=	75x50
#StageZ=	Z motor
#X (µm)=	-27063.9
#Y (µm)=	-1972.1
#Z (µm)=	573
#Full time(s)=	40
#Project=	A
#Sample=	B
#Site=	C
#Title=	-30-3-0p1_75
#Remark=	
#Date=	14.08.2020 14:36
#Acquired=	14.08.2020 14:36:36
535.014	50
535.066	48
535.119	44
535.172	38
535.224	38
535.277	38
535.329	40
535.382	36
535.434	36
535.487	42
535.539	40
535.592	44
535.644	42
535.697	44
535.75	38
535.802	50
535.855	44
535.907	48
535.96	38
536.012	48
536.065	48
536.117	54
536.17	46
536.222	58
536.275	46
536.328	52
536.38	52
536.433	50
536.485	38
536.538	58
536.59	50
536.643	48
536.695	48
536.748	52
536.8	52
536.853	38
536.906	52
536.958	48
537.011	52
537.063	42
537.116	54
537.168	46
537.221	44
537.273	54
537.326	48
537.378	50
537.431	64
537.483	54
537.536	56
537.589	54
537.641	52
537.694	54
537.746	54
537.799	48
537.851	48
537.904	46
537.956	60
538.009	50
538.061	46
538.114	56
538.166	44
538.219	50
538.271	54
538.324	56
538.377	56
538.429	58
538.482	58
538.534	52
538.587	52
538.639	52
538.692	48
538.744	68
538.797	52
538.849	56
538.902	56
538.954	48
539.007	52
539.059	38
539.112	40
539.164	36
539.217	42
539.269	40
539.322	46
539.375	38
539.427	42
539.48	38
539.532	42
539.585	42
539.637	42
539.69	42
539.742	38
539.795	38
539.847	36
539.9	50
539.952	38
540.005	38
540.057	40
540.11	40
540.162	42
540.215	46
540.267	44
540.32	48
540.372	40
540.425	36
540.477	40
540.53	38
540.582	40
540.635	42
540.687	36
540.74	46
540.792	42
540.845	44
540.897	42
540.95	36
541.003	42
541.055	38
541.107	44
541.16	38
541.213	52
541.265	48
541.318	42
541.37	44
541.423	50
541.475	50
541.528	38
541.58	38
541.633	44
541.685	46
541.738	48
541.79	52
541.843	52
541.895	50
541.948	54
542	48
542.053	46
542.105	58
542.158	44
542.21	56
542.263	52
542.315	56
542.368	60
542.42	58
542.473	52
542.525	54
542.578	54
542.63	54
542.683	54
542.735	68
542.788	78
542.84	80
542.893	74
542.945	80
542.998	98
543.05	96
543.103	98
543.155	120
543.208	160
543.26	164
543.313	152
543.365	156
543.417	142
543.47	106
543.522	94
543.575	80
543.627	76
543.68	76
543.732	84
543.785	102
543.837	138
543.89	182
543.942	244
543.995	290
544.047	338
544.1	294
544.152	230
544.205	206
544.257	138
544.31	108
544.362	100
544.415	70
544.467	70
544.52	60
544.572	60
544.625	58
544.677	54
544.73	56
544.782	58
544.835	62
544.887	66
544.94	54
544.992	68
545.044	62
545.097	64
545.149	68
545.202	70
545.254	68
545.307	76
545.359	78
545.412	68
545.464	82
545.517	68
545.569	66
545.622	76
545.674	62
545.727	62
545.779	64
545.832	64
545.884	60
545.937	56
545.989	52
546.042	54
546.094	52
546.146	52
546.199	38
546.251	42
546.304	46
546.356	54
546.409	46
546.461	52
546.514	48
546.566	60
546.619	46
546.671	48
546.724	54
546.776	48
546.828	38
546.881	48
546.933	50
546.986	54
547.038	52
547.091	48
547.143	40
547.196	48
547.248	52
547.301	46
547.353	44
547.406	50
547.458	50
547.51	46
547.563	64
547.615	44
547.668	40
547.72	48
547.773	46
547.825	52
547.878	48
547.93	46
547.983	50
548.035	46
548.087	54
548.14	46
548.192	50
548.245	44
548.297	54
548.35	54
548.402	48
548.455	48
548.507	44
548.56	54
548.612	50
548.664	48
548.717	50
548.769	56
548.822	50
548.874	50
548.927	50
548.979	54
549.032	50
549.084	58
549.136	56
549.189	40
549.241	44
549.294	58
549.346	46
549.399	42
549.451	44
549.504	56
549.556	50
549.608	60
549.661	54
549.713	64
549.766	66
549.818	50
549.871	46
549.923	50
549.976	46
550.028	48
550.08	46
550.133	46
550.185	48
550.238	56
550.29	42
550.343	54
550.395	46
550.447	52
550.5	50
550.552	54
550.605	48
550.657	48
550.71	50
550.762	44
550.814	46
550.867	46
550.919	54
550.972	56
551.024	46
551.077	54
551.129	46
551.181	42
551.234	34
551.286	42
551.339	34
551.391	44
551.444	36
551.496	34
551.548	42
551.601	44
551.653	38
551.706	44
551.758	42
551.811	46
551.863	38
551.915	42
551.968	44
552.02	38
552.073	40
552.125	40
552.177	34
552.23	40
552.282	40
552.335	50
552.387	50
552.44	36
552.492	28
552.544	36
552.597	40
552.649	38
552.702	36
552.754	40
552.806	42
552.859	42
552.911	40
552.964	34
553.016	32
553.069	40
553.121	46
553.173	48
553.226	30
553.278	44
553.331	46
553.383	36
553.435	46
553.488	44
553.54	46
553.593	36
553.645	50
553.697	46
553.75	38
553.802	50
553.855	42
553.907	46
553.959	40
554.012	52
554.064	48
554.117	50
554.169	42
554.221	50
554.274	46
554.326	46
554.379	52
554.431	54
554.484	38
554.536	54
554.588	52
554.641	48
554.693	54
554.745	46
554.798	50
554.85	46
554.903	36
554.955	48
555.007	52
555.06	44
555.112	42
555.165	36
555.217	52
555.269	48
555.322	50
555.374	42
555.427	50
555.479	52
555.531	46
555.584	44
555.636	50
555.689	48
555.741	50
555.793	48
555.846	54
555.898	48
555.951	48
556.003	44
556.055	46
556.108	44
556.16	42
556.212	44
556.265	36
556.317	40
556.37	48
556.422	44
556.474	38
556.527	40
556.579	54
556.631	36
556.684	44
556.736	52
556.789	42
556.841	40
556.893	48
556.946	42
556.998	40
557.051	44
557.103	34
557.155	46
557.208	44
557.26	42
557.312	34
557.365	50
557.417	42
557.47	38
557.522	42
557.574	40
557.627	44
557.679	44
557.731	52
557.784	42
557.836	50
557.888	44
557.941	34
557.993	38
558.046	50
558.098	44
558.15	38
558.203	40
558.255	36
558.307	40
558.36	42
558.412	50
558.465	32
558.517	38
558.569	38
558.622	32
558.674	38
558.726	34
558.779	40
558.831	36
558.883	40
558.936	42
558.988	42
559.041	38
559.093	44
559.145	36
559.198	38
559.25	44
559.302	42
559.355	30
559.407	42
559.459	42
559.512	44
559.564	42
559.616	36
559.669	38
559.721	34
559.773	48
559.826	34
559.878	40
559.931	44
559.983	40
560.035	30
560.088	34
560.14	32
560.192	38
560.245	34
560.297	40
560.349	40
560.402	36
560.454	40
560.506	36
560.559	40
560.611	38
560.663	42
560.716	40
560.768	40
560.82	38
560.873	46
560.925	30
560.978	28
561.03	40
561.082	38
561.135	42
561.187	36
561.239	24
561.292	38
561.344	38
561.396	36
561.449	38
561.501	34
561.553	38
561.606	40
561.658	36
561.71	40
561.763	42
561.815	32
561.867	42
561.92	40
561.972	28
562.024	30
562.077	30
562.129	46
562.181	34
562.234	40
562.286	36
562.338	28
562.391	32
562.443	32
562.495	38
562.548	40
562.6	36
562.652	30
562.705	40
562.757	38
562.809	36
562.862	36
562.914	26
562.966	34
563.019	36
563.071	36
563.123	26
563.175	38
563.228	32
563.28	40
563.332	36
563.385	40
563.437	34
563.489	32
563.542	30
563.594	32
563.646	34
563.699	36
563.751	28
563.803	24
563.856	26
563.908	40
563.96	30
564.013	34
564.065	28
564.117	36
564.17	34
564.222	34
564.274	34
564.326	30
564.379	28
564.431	30
564.483	40
564.536	34
564.588	26
564.64	32
564.693	36
564.745	30
564.797	28
564.85	36
564.902	38
564.954	34
565.007	34
565.059	38
565.111	32
565.163	40
565.216	38
565.268	34
565.32	30
565.373	34
565.425	42
565.477	38
565.53	28
565.582	34
565.634	28
565.686	30
565.739	28
565.791	36
565.843	32
565.896	26
565.948	26
566	34
566.053	28
566.105	34
566.157	36
566.209	30
566.262	28
566.314	36
566.366	32
566.419	34
566.471	28
566.523	30
566.575	32
566.628	28
566.68	36
566.732	32
566.785	34
566.837	30
566.889	32
566.941	30
566.994	34
567.046	38
567.098	34
567.151	34
567.203	38
567.255	30
567.307	36
567.36	32
567.412	32
567.464	38
567.517	34
567.569	30
567.621	38
567.673	36
567.726	28
567.778	38
567.83	40
567.883	28
567.935	36
567.987	24
568.039	28
568.092	32
568.144	34
568.196	44
568.249	32
568.301	34
568.353	42
568.405	30
568.458	30
568.51	32
568.562	40
568.614	30
568.667	28
568.719	30
568.771	22
568.824	26
568.876	32
568.928	40
568.98	34
569.033	30
569.085	36
569.137	34
569.189	34
569.242	28
569.294	26
569.346	32
569.398	36
569.451	38
569.503	26
569.555	26
569.608	34
569.66	30
569.712	32
569.764	24
569.817	34
569.869	26
569.921	26
569.973	30
570.026	42
570.078	38
570.13	32
570.182	32
570.235	42
570.287	34
570.339	34
570.391	34
570.444	36
570.496	28
570.548	30
570.6	26
570.653	38
570.705	46
570.757	30
570.809	26
570.862	30
570.914	36
570.966	42
571.018	28
571.071	32
571.123	34
571.175	30
571.227	34
571.28	44
571.332	28
571.384	40
571.436	34
571.489	34
571.541	30
571.593	38
571.645	32
571.698	30
571.75	34
571.802	42
571.854	34
571.907	32
571.959	26
572.011	34
572.063	20
572.116	34
572.168	26
572.22	38
572.272	36
572.325	22
572.377	28
572.429	34
572.481	32
572.533	32
572.586	36
572.638	38
572.69	34
572.742	28
572.795	28
572.847	32
572.899	34
572.951	30
573.004	28
573.056	36
573.108	32
573.16	30
573.212	32
573.265	36
573.317	30
573.369	24
573.421	34
573.474	24
573.526	34
573.578	32
573.63	26
573.682	34
573.735	30
573.787	30
573.839	30
573.891	30
573.944	32
573.996	36
574.048	36
574.1	38
574.153	30
574.205	30
574.257	32
574.309	30
574.361	26
574.414	38
574.466	36
574.518	36
574.57	34
574.622	26
574.675	26
574.727	32
574.779	32
574.831	36
574.884	36
574.936	36
574.988	30
575.04	36
575.092	28
575.145	28
575.197	38
575.249	22
575.301	32
575.353	24
575.406	28
575.458	22
575.51	30
575.562	36
575.614	28
575.667	38
575.719	38
575.771	30
575.823	28
575.875	34
575.928	28
575.98	34
576.032	40
576.084	26
576.136	38
576.189	30
576.241	30
576.293	30
576.345	34
576.397	26
576.45	26
576.502	40
576.554	32
576.606	22
576.658	38
576.711	36
576.763	32
576.815	36
576.867	32
576.919	38
576.972	32
577.024	32
577.076	34
577.128	30
577.18	38
577.233	32
577.285	26
577.337	22
577.389	26
577.441	34
577.493	30
577.546	38
577.598	36
577.65	38
577.702	24
577.754	24
577.807	32
577.859	24
577.911	30
577.963	30
578.015	27.9902
578.068	24.0284
578.12	31.989
578.172	24.1359
578.224	28.0946
578.276	24.1351
578.328	22.2888
578.381	33.7532
578.433	31.6546
578.485	33.7508
578.537	33.9426
578.589	31.859
578.641	29.7921
578.694	32.8575
578.746	35.5228
578.798	33.5165
578.85	26.1174
578.902	24.2222
578.954	35.4478
579.007	33.3684
579.059	31.3533
579.111	31.4844
579.163	24.3149
579.215	26.1395
579.268	24.4387
579.32	32.047
579.372	32.1143
579.424	30.1517
579.476	32.5672
579.528	35.5525
579.581	28.4584
579.633	30.4727
579.685	22.8507
579.737	26
579.789	32.751
579.841	29.7736
579.893	31.5077
579.946	27.8691
579.998	28.0161
580.05	27.1791
580.102	31.1771
580.154	27.461
580.206	28.7083
580.259	28.6959
580.311	23.4723
580.363	34.6418
580.415	34.9053
580.467	29.2696
580.519	24.4129
580.572	28.6831
580.624	31.1467
580.676	31.3345
580.728	31.4173
580.78	32.3772
580.832	31.6887
580.884	31.0526
580.937	23.6197
580.989	32.7861
581.041	29.1642
581.093	25.892
581.145	30.8318
581.197	29.1968
581.25	27.5383
581.302	26.4719
581.354	32.631
581.406	28.5262
581.458	29.3584
581.51	21.6791
581.562	27.6689
581.615	27.9047
581.667	28.869
581.719	31.7065
581.771	22.6384
581.823	29.6197
581.875	30.0666
581.927	31.0633
581.979	30.579
582.032	33.377
582.084	29.5029
582.136	25.8182
582.188	26.005
582.24	27.9815
582.292	28.6567
582.344	26.7873
582.397	36.8936
582.449	30.8849
582.501	30.4303
582.553	33.6001
582.605	29.1036
582.657	30.4932
582.709	28.0245
582.762	28.1117
582.814	33.8972
582.866	29.3299
582.918	31.3221
582.97	31.7015
583.022	33.108
583.074	28.4197
583.126	36.3149
583.179	33.9801
583.231	31.6643
583.283	30.2168
583.335	32.5962
583.387	28.704
583.439	26.0398
583.491	26.1935
583.543	30.8464
583.596	25.209
583.648	27.1665
583.7	31.5695
583.752	27.0992
583.804	32.6512
583.856	25.5224
583.908	22.279
583.96	28.2135
584.013	28.8507
584.065	27.7095
584.117	24.966
584.169	28.3582
584.221	27.4756
584.273	27.1368
584.325	37.1438
584.377	32.0945
584.43	33.6321
584.482	29.6933
584.534	29.9243
584.586	24.2371
584.638	26.9698
584.69	33.2547
584.742	22.9921
584.794	33.4711
584.846	35.3617
584.899	27.3691
584.951	27.3284
585.003	34.5642
585.055	29.4356
585.107	25.3597
585.159	25.2039
585.211	27.8505
585.263	28.1091
585.315	30
585.367	29.253
585.42	24.9103
585.472	30.6108
585.524	24.013
585.576	27.6567
585.628	30.3416
585.68	26.2124
585.732	25.4776
585.784	30.6158
585.836	25.5082
585.889	27.2436
585.941	26.6225
585.993	29.7077
586.045	31.8457
586.097	30.6134
586.149	27.7861
586.201	24.4335
586.253	28.8484
586.305	21.7796
586.357	32.8078
586.409	29.0466
586.462	27.1926
586.514	29.5558
586.566	26.8216
586.618	30.9319
586.67	32.6866
586.722	28.1723
586.774	26.1373
586.826	28.7145
586.878	28
586.93	32.3071
586.982	27.4564
587.035	33.0569
587.087	30.8918
587.139	30.9165
587.191	24.8686
587.243	25.8107
587.295	29.4279
587.347	30.2139
587.399	31.8368
587.451	29.599
587.503	31.7984
587.555	34.8592
587.608	25.4908
587.66	29.93
587.712	27.5618
587.764	27.9676
587.816	25.1373
587.868	25.5462
587.92	25.6866
587.972	32.0022
588.024	30.6317
588.076	31.5052
588.128	27.7116
588.18	34.7306
588.232	32.191
588.285	31.3241
588.337	27.6953
588.389	27.456
588.441	36.5332
588.456	40
588.508	32
588.56	28
588.613	22
588.665	24
588.717	26
588.769	34
588.822	30
588.874	30
588.926	26
588.979	24
589.031	32
589.083	26
589.135	28
589.188	28
589.24	28
589.292	34
589.344	26
589.397	24
589.449	24
589.501	30
589.554	32
589.606	34
589.658	30
589.71	32
589.763	22
589.815	24
589.867	32
589.92	26
589.972	28
590.024	24
590.076	26
590.129	34
590.181	28
590.233	34
590.285	32
590.338	24
590.39	26
590.442	22
590.495	26
590.547	34
590.599	32
590.651	26
590.704	32
590.756	26
590.808	28
590.86	28
590.913	28
590.965	30
591.017	32
591.069	36
591.122	28
591.174	28
591.226	42
591.279	28
591.331	26
591.383	30
591.435	20
591.488	28
591.54	24
591.592	24
591.644	28
591.697	28
591.749	30
591.801	28
591.853	32
591.906	26
591.958	30
592.01	32
592.062	28
592.115	26
592.167	28
592.219	30
592.271	28
592.324	30
592.376	28
592.428	30
592.48	30
592.533	32
592.585	26
592.637	24
592.689	44
592.742	38
592.794	28
592.846	30
592.898	28
592.951	30
593.003	38
593.055	38
593.107	38
593.16	34
593.212	34
593.264	32
593.316	28
593.369	30
593.421	20
593.473	30
593.525	32
593.578	30
593.63	30
593.682	28
593.734	40
593.787	38
593.839	38
593.891	34
593.943	36
593.996	30
594.048	36
594.1	38
594.152	32
594.205	30
594.257	38
594.309	40
594.361	26
594.413	32
594.466	26
594.518	34
594.57	32
594.622	32
594.675	30
594.727	32
594.779	30
594.831	28
594.884	32
594.936	36
594.988	36
595.04	32
595.092	34
595.145	30
595.197	26
595.249	24
595.301	32
595.354	34
595.406	38
595.458	34
595.51	30
595.563	32
595.615	34
595.667	36
595.719	26
595.771	34
595.824	32
595.876	34
595.928	32
595.98	26
596.033	24
596.085	28
596.137	30
596.189	30
596.241	38
596.294	32
596.346	38
596.398	28
596.45	34
596.503	34
596.555	32
596.607	22
596.659	28
596.711	22
596.764	32
596.816	30
596.868	30
596.92	20
596.972	28
597.025	30
597.077	30
597.129	30
597.181	30
597.233	30
597.286	32
597.338	20
597.39	34
597.442	30
597.495	30
597.547	34
597.599	32
597.651	36
597.703	30
597.756	28
597.808	20
597.86	26
597.912	28
597.964	28
598.017	38
598.069	34
598.121	34
598.173	44
598.225	28
598.278	34
598.33	20
598.382	24
598.434	34
598.486	34
598.539	38
598.591	34
598.643	32
598.695	26
598.747	30
598.8	30
598.852	32
598.904	32
598.956	36
599.008	34
599.06	36
599.113	32
599.165	34
599.217	28
599.269	26
599.321	26
599.374	20
599.426	28
599.478	26
599.53	30
599.582	30
599.635	26
599.687	34
599.739	30
599.791	34
599.843	38
599.896	32
599.948	32
600	28
600.052	32
600.104	24
600.156	26
600.209	28
600.261	38
600.313	26
600.365	40
600.417	32
600.47	46
600.522	34
600.574	24
600.626	32
600.678	32
600.73	32
600.783	34
600.835	30
600.887	34
600.939	26
600.991	30
601.044	36
601.096	30
601.148	34
601.2	32
601.252	32
601.304	28
601.357	30
601.409	34
601.461	28
601.513	24
601.565	30
601.617	34
601.67	38
601.722	34
601.774	30
601.826	38
601.878	36
601.93	28
601.983	28
602.035	34
602.087	28
602.139	28
602.191	38
602.243	36
602.296	40
602.348	30
602.4	34
602.452	34
602.504	34
602.556	32
602.609	34
602.661	32
602.713	36
602.765	30
602.817	28
602.869	32
602.922	34
602.974	24
603.026	28
603.078	32
603.13	32
603.182	26
603.234	30
603.287	36
603.339	40
603.391	28
603.443	36
603.495	38
603.547	38
603.599	36
603.652	42
603.704	24
603.756	32
603.808	36
603.86	30
603.912	34
603.965	30
604.017	24
604.069	38
604.121	34
604.173	36
604.225	32
604.277	24
604.33	38
604.382	30
604.434	30
604.486	42
604.538	34
604.59	34
604.642	34
604.695	30
604.747	32
604.799	34
604.851	36
604.903	38
604.955	24
605.007	36
605.06	22
605.112	34
605.164	30
605.216	34
605.268	38
605.32	30
605.372	42
605.424	24
605.477	34
605.529	40
605.581	34
605.633	24
605.685	32
605.737	34
605.789	36
605.842	32
605.894	32
605.946	30
605.998	30
606.05	24
606.102	34
606.154	32
606.206	34
606.259	38
606.311	36
606.363	36
606.415	32
606.467	24
606.519	34
606.571	30
606.623	34
606.676	42
606.728	32
606.78	30
606.832	26
606.884	38
606.936	34
606.988	42
607.04	34
607.093	32
607.145	30
607.197	32
607.249	36
607.301	26
607.353	28
607.405	28
607.457	34
607.509	38
607.562	38
607.614	34
607.666	32
607.718	28
607.77	30
607.822	30
607.874	32
607.926	24
607.978	34
608.031	30
608.083	36
608.135	34
608.187	32
608.239	30
608.291	34
608.343	32
608.395	32
608.447	34
608.5	42
608.552	28
608.604	28
608.656	30
608.708	36
608.76	28
608.812	34
608.864	42
608.916	26
608.968	36
609.021	38
609.073	26
609.125	32
609.177	40
609.229	34
609.281	40
609.333	34
609.385	30
609.437	38
609.489	38
609.542	46
609.594	32
609.646	42
609.698	30
609.75	34
609.802	38
609.854	30
609.906	32
609.958	34
610.01	34
610.062	36
610.115	36
610.167	42
610.219	38
610.271	28
610.323	38
610.375	38
610.427	40
610.479	44
610.531	36
610.583	36
610.635	34
610.687	42
610.74	36
610.792	42
610.844	32
610.896	34
610.948	34
611	42
611.052	34
611.104	34
611.156	32
611.208	44
611.26	40
611.312	36
611.365	34
611.417	30
611.469	38
611.521	30
611.573	34
611.625	38
611.677	30
611.729	40
611.781	38
611.833	40
611.885	34
611.937	42
611.989	36
612.041	38
612.094	40
612.146	34
612.198	40
612.25	34
612.302	44
612.354	40
612.406	40
612.458	38
612.51	32
612.562	28
612.614	36
612.666	38
612.718	34
612.77	28
612.822	34
612.875	36
612.927	30
612.979	30
613.031	30
613.083	36
613.135	44
613.187	38
613.239	30
613.291	32
613.343	40
613.395	30
613.447	36
613.499	36
613.551	38
613.603	34
613.655	30
613.707	42
613.759	30
613.812	42
613.864	32
613.916	42
613.968	30
614.02	38
614.072	34
614.124	40
614.176	44
614.228	42
614.28	28
614.332	38
614.384	26
614.436	36
614.488	32
614.54	32
614.592	38
614.644	36
614.696	44
614.748	32
614.8	30
614.852	30
614.904	30
614.957	38
615.009	34
615.061	30
615.113	42
615.165	32
615.217	30
615.269	28
615.321	34
615.373	36
615.425	38
615.477	44
615.529	30
615.581	28
615.633	44
615.685	38
615.737	38
615.789	38
615.841	34
615.893	38
615.945	38
615.997	36
616.049	44
616.101	38
616.153	42
616.205	46
616.257	32
616.309	36
616.361	42
616.413	44
616.465	40
616.518	28
616.57	26
616.622	46
616.674	40
616.726	34
616.778	24
616.83	42
616.882	36
616.934	36
616.986	34
617.038	36
617.09	40
617.142	32
617.194	40
617.246	38
617.298	26
617.35	32
617.402	32
617.454	36
617.506	44
617.558	38
617.61	30
617.662	38
617.714	40
617.766	34
617.818	42
617.87	32
617.922	26
617.974	42
618.026	42
618.078	40
618.13	40
618.182	32
618.234	36
618.286	38
618.338	32
618.39	38
618.442	40
618.494	38
618.546	42
618.598	32
618.65	30
618.702	36
618.754	38
618.806	40
618.858	46
618.91	40
618.962	32
619.014	36
619.066	32
619.118	44
619.17	34
619.222	38
619.274	48
619.326	34
619.378	38
619.43	42
619.482	36
619.534	44
619.586	38
619.638	34
619.69	46
619.742	42
619.794	42
619.846	34
619.898	40
619.95	46
620.002	48
620.054	38
620.106	38
620.158	36
620.21	36
620.262	40
620.314	44
620.366	44
620.418	48
620.47	36
620.522	30
620.574	36
620.626	32
620.678	38
620.73	38
620.782	36
620.834	40
620.886	46
620.938	39.9829
620.99	39.9212
621.042	34.0428
621.094	41.856
621.146	30.0684
621.198	41.9243
621.25	37.8867
621.301	37.964
621.353	43.5267
621.405	40.5556
621.457	35.9183
621.509	34.1686
621.561	35.515
621.613	38.4219
621.665	41.4634
621.717	49.3122
621.769	44.6006
621.821	42.1179
621.873	37.7726
621.925	44.5192
621.977	36.3793
622.029	37.8562
622.081	45.9434
622.133	38.0137
622.185	32.9349
622.237	42.7058
622.289	33.5343
622.341	40.0355
622.393	39.1343
622.445	27.1877
622.497	37.9904
622.549	37.695
622.601	37.9928
622.653	34.3598
622.705	50.606
622.757	40.944
622.809	37.9911
622.86	32
622.912	38.4677
622.964	39.6028
623.016	40.7943
623.068	41.1693
623.12	41.1542
623.172	38.4242
623.224	32.2139
623.276	39.1199
623.328	48.7466
623.38	40.1437
623.432	40.408
623.484	40.1151
623.536	42.382
623.588	36.5916
623.64	37.0154
623.692	36.5981
623.744	38.6108
623.796	38.0369
623.848	34.4739
623.9	42.6413
623.951	37.5105
624.003	32.6413
624.055	41.2396
624.107	41.108
624.159	37.8807
624.211	40.2758
624.263	41.5566
624.315	44.4414
624.367	37.8685
624.419	39.8295
624.471	40.4374
624.523	38.0746
624.575	40.7015
624.627	38.1866
624.679	38.6867
624.731	38.3433
624.783	34.528
624.834	37.8892
624.886	37.3538
624.938	41.5666
624.99	36.1244
625.042	37.8712
625.094	34.403
625.146	42.395
625.198	40.2864
625.25	33.2769
625.302	43.2271
625.354	45.8406
625.406	40.4953
625.458	36.6119
625.51	40.1229
625.562	34.7101
625.613	46.5486
625.665	38.9243
625.717	42
625.769	41.2328
625.821	40.7568
625.873	38.1003
625.925	41.9204
625.977	36.6253
626.029	38.2751
626.081	37.0099
626.133	41.7518
626.185	41.2571
626.237	39.0064
626.289	39.2566
626.34	40.274
626.392	42.6679
626.444	43.7109
626.496	39.8171
626.548	42.0252
626.6	46.2618
626.652	44.9369
626.704	42.4527
626.756	41.9389
626.808	42.2338
626.86	37.6267
626.912	42.3372
626.963	42.3863
627.015	36.2587
627.067	36.126
627.119	39.6865
627.171	36.7877
627.223	38.3573
627.275	38.3939
627.327	40.0375
627.379	46.6636
627.431	43.7463
627.483	43.5637
627.534	40.6486
627.586	44.2366
627.638	40.9679
627.69	43.59
627.742	44.8702
627.794	44.9556
627.846	42.2022
627.898	42.9626
627.95	43.3483
628.002	40.0756
628.054	38.7167
628.105	44.9934
628.157	40.104
628.209	37.4753
628.261	39.7761
628.313	40.1232
628.365	44.8557
628.417	43.798
628.469	38.9705
628.521	43.2537
628.573	44.9186
628.624	46.8632
628.676	45.3809
628.728	40.6704
628.78	39.8745
628.832	37.667
628.884	40.5504
628.936	42.9846
628.988	42
629.04	39.9361
629.091	40.8043
629.143	39.4552
629.195	38.8586
629.247	41.5848
629.299	39.1791
629.351	43.1537
629.403	40.4951
629.455	39.3203
629.507	38.2519
629.558	40.2406
629.61	43.8347
629.662	43.3763
629.714	46.2435
629.766	46.0844
629.818	42.4432
629.87	43.4328
629.922	41.9024
629.974	40.791
630.025	38.2009
630.077	36.0194
630.129	41.0525
630.181	43.72
630.233	38.4858
630.285	38.6667
630.337	42.5821
630.389	43.1246
630.44	48.5765
630.492	48.057
630.544	45.3155
630.596	43.768
630.648	39.1305
630.7	38.9307
630.752	38.6104
630.804	42.5044
630.855	45.23
630.907	47.2949
630.959	42.5688
631.011	41.5723
631.063	47.6947
631.115	42.1904
631.167	47.1881
631.219	47.9219
631.27	43.3274
631.322	44.6731
631.357	50
631.409	34
631.461	44
631.513	40
631.565	50
631.617	52
631.669	38
631.722	40
631.774	38
631.826	42
631.878	42
631.93	42
631.982	34
632.034	42
632.086	46
632.138	44
632.19	42
632.242	40
632.294	50
632.347	42
632.399	34
632.451	40
632.503	44
632.555	38
632.607	50
632.659	46
632.711	60
632.763	42
632.815	46
632.867	42
632.919	44
632.971	50
633.024	44
633.076	42
633.128	46
633.18	48
633.232	48
633.284	48
633.336	58
633.388	54
633.44	42
633.492	44
633.544	54
633.596	58
633.648	40
633.701	42
633.753	46
633.805	42
633.857	52
633.909	40
633.961	48
634.013	56
634.065	44
634.117	56
634.169	48
634.221	46
634.273	50
634.325	48
634.377	48
634.429	44
634.481	50
634.534	60
634.586	58
634.638	52
634.69	44
634.742	42
634.794	56
634.846	48
634.898	44
634.95	48
635.002	52
635.054	50
635.106	48
635.158	44
635.21	46
635.262	54
635.314	46
635.366	44
635.418	52
635.471	54
635.523	42
635.575	50
635.627	52
635.679	60
635.731	52
635.783	46
635.835	40
635.887	38
635.939	48
635.991	50
636.043	46
636.095	52
636.147	50
636.199	40
636.251	42
636.303	58
636.355	54
636.407	42
636.459	52
636.511	48
636.564	56
636.616	58
636.668	48
636.72	44
636.772	46
636.824	46
636.876	46
636.928	56
636.98	58
637.032	52
637.084	46
637.136	54
637.188	56
637.24	50
637.292	48
637.344	54
637.396	52
637.448	44
637.5	52
637.552	58
637.604	48
637.656	52
637.708	70
637.76	46
637.812	50
637.864	58
637.916	52
637.969	52
638.021	52
638.073	46
638.125	48
638.177	52
638.229	50
638.281	60
638.333	52
638.385	50
638.437	46
638.489	52
638.541	46
638.593	60
638.645	58
638.697	44
638.749	54
638.801	48
638.853	46
638.905	58
638.957	40
639.009	52
639.061	62
639.113	68
639.165	54
639.217	54
639.269	58
639.321	46
639.373	56
639.425	66
639.477	62
639.529	50
639.581	58
639.633	62
639.685	60
639.737	66
639.789	62
639.841	66
639.893	50
639.945	64
639.997	62
640.049	52
640.101	52
640.153	46
640.205	58
640.257	62
640.309	54
640.361	58
640.413	56
640.465	60
640.517	60
640.569	54
640.621	58
640.673	66
640.725	56
640.777	68
640.829	56
640.881	62
640.933	58
640.985	52
641.037	56
641.089	68
641.141	52
641.193	64
641.245	66
641.297	58
641.349	64
641.401	56
641.453	72
641.505	56
641.557	56
641.609	66
641.661	54
641.713	68
641.765	70
641.817	62
641.869	58
641.921	60
641.973	62
642.025	64
642.077	62
642.129	56
642.181	58
642.233	62
642.285	50
642.337	56
642.389	64
642.441	62
642.493	76
642.545	50
642.597	68
642.649	70
642.701	66
642.753	78
642.805	64
642.857	60
642.909	66
642.961	58
643.013	64
643.065	70
643.117	56
643.169	68
643.221	72
643.273	60
643.325	64
643.377	56
643.429	64
643.481	66
643.533	68
643.585	74
643.637	74
643.689	68
643.741	72
643.793	70
643.845	70
643.897	68
643.949	62
644.001	68
644.053	74
644.104	66
644.156	64
644.208	68
644.26	74
644.312	74
644.364	62
644.416	74
644.468	68
644.52	60
644.572	66
644.624	70
644.676	80
644.728	70
644.78	72
644.832	72
644.884	76
644.936	74
644.988	64
645.04	66
645.092	84
645.144	54
645.196	70
645.248	66
645.3	70
645.352	86
645.404	78
645.456	66
645.508	80
645.56	68
645.611	74
645.663	70
645.715	62
645.767	74
645.819	70
645.871	68
645.923	70
645.975	72
646.027	76
646.079	82
646.131	76
646.183	74
646.235	90
646.287	70
646.339	74
646.391	70
646.443	78
646.495	74
646.547	72
646.599	80
646.65	68
646.702	88
646.754	70
646.806	84
646.858	82
646.91	88
646.962	90
647.014	76
647.066	70
647.118	88
647.17	78
647.222	84
647.274	82
647.326	80
647.378	80
647.43	90
647.482	92
647.533	80
647.585	74
647.637	70
647.689	80
647.741	80
647.793	88
647.845	80
647.897	76
647.949	82
648.001	92
648.053	74
648.105	86
648.157	82
648.209	86
648.26	92
648.312	86
648.364	84
648.416	96
648.468	78
648.52	88
648.572	82
648.624	78
648.676	84
648.728	92
648.78	86
648.832	84
648.884	84
648.936	98
648.987	86
649.039	82
649.091	84
649.143	100
649.195	92
649.247	86
649.299	88
649.351	86
649.403	98
649.455	86
649.507	92
649.559	96
649.611	82
649.662	88
649.714	98
649.766	90
649.818	92
649.87	104
649.922	100
649.974	88
650.026	88
650.078	104
650.13	92
650.182	92
650.233	94
650.285	88
650.337	88
650.389	100
650.441	90
650.493	96
650.545	102
650.597	94
650.649	100
650.701	106
650.753	102
650.804	104
650.856	94
650.908	90
650.96	90
651.012	106
651.064	94
651.116	94
651.168	110
651.22	100
651.272	100
651.323	102
651.375	96
651.427	86
651.479	96
651.531	100
651.583	98
651.635	98
651.687	98
651.739	96
651.791	108
651.842	98
651.894	112
651.946	102
651.998	92
652.05	100
652.102	86
652.154	92
652.206	92
652.258	114
652.309	110
652.361	96
652.413	106
652.465	102
652.517	112
652.569	102
652.621	100
652.673	106
652.725	114
652.776	106
652.828	102
652.88	114
652.932	100
652.984	100
653.036	98
653.088	112
653.14	96
653.191	104
653.243	112
653.295	124
653.347	108
653.399	100
653.451	96
653.503	128
653.555	112
653.607	116
653.658	108
653.71	104
653.762	110
653.814	106
653.866	108
653.918	98
653.97	120
654.021	118
654.073	122
654.125	106
654.177	112
654.229	104
654.281	110
654.333	102
654.385	104
654.436	108
654.488	114
654.54	100
654.592	108
654.644	116
654.696	130
654.748	108
654.799	106
654.851	114
654.903	112
654.955	110
655.007	98
655.059	118
655.111	108
655.163	118
655.214	106
655.266	104
655.318	120
655.37	118
655.422	102
655.474	116
655.526	116
655.577	108
655.629	118
655.681	112
655.733	110
655.785	112
655.837	104
655.888	126
655.94	118
655.992	118
656.044	120
656.096	112
656.148	114
656.2	110
656.251	108
656.303	116
656.355	116
656.407	106
656.459	110
656.511	120
656.563	130
656.614	116
656.666	112
656.718	118
656.77	122
656.822	108
656.874	116
656.925	126
656.977	104
657.029	126
657.081	102
657.133	112
657.185	110
657.236	108
657.288	112
657.34	114
657.392	110
657.444	120
657.496	110
657.547	114
657.599	110
657.651	120
657.703	116
657.755	112
657.807	116
657.858	124
657.91	112
657.962	120
658.014	124
658.066	124
658.118	112
658.169	108
658.221	118
658.273	118
658.325	116
658.377	124
658.429	122
658.48	96
658.532	110
658.584	126
658.636	114
658.688	124
658.74	108
658.791	108
658.843	122
658.895	128
658.947	136
658.999	118
659.05	124
659.102	112
659.154	122
659.206	106
659.258	116
659.31	116
659.361	124
659.413	114
659.465	114
659.517	118
659.569	118
659.62	126
659.672	114
659.724	124
659.776	114
659.828	128
659.879	120
659.931	112
659.983	112
660.035	114
660.087	114
660.138	114
660.19	128
660.242	110
660.294	132
660.346	112
660.398	124
660.449	126
660.501	112
660.553	116
660.605	116
660.657	118
660.708	108
660.76	114
660.812	118
660.864	100
660.916	110
660.967	122
661.019	116
661.071	116
661.123	118
661.174	118
661.226	110
661.278	110
661.33	112
661.382	120
661.433	120
661.485	116
661.537	118
661.589	126
661.641	100
661.692	122
661.744	110
661.796	114
661.848	110
661.9	110
661.951	112
662.003	112
662.055	108
662.107	112
662.159	110
662.21	98
662.262	124
662.314	112
662.366	110
662.417	112
662.469	124
662.521	120
662.573	106
662.625	110
662.676	118
662.728	110
662.78	118
662.832	102
662.883	118
662.935	116
662.987	106
663.039	104
663.091	104
663.142	108
663.194	118
663.246	116
663.298	120
663.349	110
663.401	114
663.453	98
663.505	112
663.557	100
663.608	115.984
663.66	104.061
663.712	108.187
663.764	100.345
663.815	118.126
663.867	119.869
663.919	115.604
663.971	109.926
664.022	96.3535
664.074	109.862
664.126	104.666
664.178	108.42
664.229	105.947
664.281	114.613
664.333	96.0979
664.385	102.255
664.437	108.095
664.488	100.549
664.54	98.473
664.592	109.155
664.644	95.1668
664.695	108.552
664.747	90.7462
664.799	108.784
664.851	107.391
664.902	101.85
664.954	105.319
665.006	99.0158
665.058	99.9733
665.109	103.618
665.161	110.755
665.213	106.126
665.265	117.941
665.316	98.453
665.368	104.224
665.42	104.352
665.472	106.126
665.523	95.4705
665.575	108.11
665.627	103.963
665.679	91.0175
665.73	105.845
665.782	104.221
665.834	107.951
665.886	103.601
665.937	105.001
665.989	100.662
666.041	104.406
666.093	110.7
666.144	101.648
666.196	94.4877
666.248	104.175
666.299	98.9299
666.351	109.284
666.403	101.211
666.455	96.8664
666.506	99.5859
666.558	92.8434
666.61	105.534
666.662	104.276
666.713	102.66
666.765	98.4863
666.817	101.318
666.869	104.488
666.92	98.8149
666.972	106.102
667.024	99.0617
667.076	104.396
667.127	90.61
667.179	105.125
667.231	105.155
667.282	104.328
667.334	92.4031
667.386	104.846
667.438	102.33
667.489	98.1372
667.541	94.0465
667.593	95.2365
667.645	97.0576
667.696	105.484
667.748	88
667.8	91.476
667.851	92.6122
667.903	95.7565
667.955	97.4478
668.007	90.3187
668.058	97.4771
668.11	106.811
668.162	94.457
668.213	95.8558
668.265	99.2569
668.317	90.7299
668.369	94.8642
668.42	98.9872
668.472	84.4705
668.524	82.9046
668.575	96.9507
668.627	93.6979
668.679	91.1899
668.731	102.819
668.782	98.0825
668.834	96.8237
668.886	90.2428
668.937	96.9561
668.989	99.7874
669.041	85.2331
669.093	95.665
669.144	90.7505
669.196	92.6619
669.248	100.184
669.299	98.3361
669.351	94.1675
669.403	84.9061
669.455	90.0548
669.506	95.1122
669.558	94.8966
669.61	101.382
669.661	90.3479
669.713	86.8819
669.765	102.168
669.816	85.7736
669.868	96.3118
669.92	97.1724
669.971	93.6074
670.023	91.7288
670.075	85.0327
670.127	82.8137
670.178	87.5028
670.23	93.5836
670.282	89.2864
670.333	90.0583
670.385	92.7278
670.437	83.9561
670.488	78.2584
670.54	86.6711
670.592	94.9818
670.644	105.007
670.695	84.5368
670.747	93.8246
670.799	93.2006
670.85	85.8337
670.902	95.3137
670.954	92.4875
671.005	87.3027
671.057	92.6104
671.109	86.2907
671.16	82.3151
671.212	90.9768
671.264	87.8522
671.315	88.092
671.367	80.1028
671.419	89.8578
671.471	79.6828
671.522	82.1879
671.574	84.9177
671.626	87.1375
671.677	84.6256
671.729	83.3879
671.781	84.8768
671.832	94.604
671.884	86.438
671.936	86.0463
671.987	85.3811
672.039	78.1276
672.091	88.4805
672.142	89.2859
672.194	97.6436
672.246	88.0544
672.297	82.4681
672.349	77.1591
672.401	88.9996
672.452	86.5452
672.504	88.0777
672.556	80.9121
672.607	89.0221
672.659	90.7246
672.711	87.6791
672.762	82.8977
672.814	79.3809
672.866	78.6625
672.917	84.1385
672.969	83.9699
673.021	86.2134
673.072	77.3825
673.124	75.0936
673.176	79.8256
673.227	81.1414
673.279	83.1376
673.331	85.2629
673.382	78.5684
673.434	77.1374
673.486	79.3718
673.537	80.9458
673.589	85.8615
673.641	85.0773
673.692	73.1323
673.744	78.9936
673.796	88.1113
673.847	89.9113
673.899	88.5169
673.951	79.2308
674.002	82.7077
674.054	89.1978
674.074	90
674.125	78
674.177	80
674.229	82
674.281	88
674.333	84
674.385	88
674.437	74
674.489	74
674.541	86
674.592	86
674.644	80
674.696	64
674.748	68
674.8	82
674.852	78
674.904	88
674.956	90
675.007	78
675.059	72
675.111	84
675.163	84
675.215	76
675.267	74
675.319	78
675.371	72
675.422	86
675.474	78
675.526	70
675.578	84
675.63	80
675.682	76
675.734	72
675.786	76
675.837	66
675.889	78
675.941	78
675.993	76
676.045	78
676.097	84
676.149	70
676.2	76
676.252	78
676.304	68
676.356	76
676.408	72
676.46	76
676.512	72
676.563	70
676.615	90
676.667	78
676.719	88
676.771	70
676.823	76
676.875	88
676.926	86
676.978	84
677.03	72
677.082	66
677.134	68
677.186	82
677.238	74
677.289	82
677.341	70
677.393	70
677.445	68
677.497	84
677.549	74
677.601	68
677.652	86
677.704	74
677.756	64
677.808	74
677.86	64
677.912	76
677.964	56
678.015	80
678.067	80
678.119	70
678.171	76
678.223	72
678.275	70
678.326	68
678.378	74
678.43	66
678.482	76
678.534	76
678.586	74
678.637	66
678.689	64
678.741	74
678.793	74
678.845	78
678.897	62
678.948	70
679	66
679.052	66
679.104	66
679.156	78
679.208	74
679.26	82
679.311	68
679.363	84
679.415	68
679.467	54
679.519	68
679.57	72
679.622	80
679.674	68
679.726	78
679.778	62
679.83	72
679.881	70
679.933	64
679.985	74
680.037	62
680.089	66
680.141	66
680.192	60
680.244	60
680.296	68
680.348	66
680.4	70
680.452	72
680.503	78
680.555	72
680.607	68
680.659	50
680.711	70
680.762	84
680.814	66
680.866	70
680.918	80
680.97	58
681.022	64
681.073	74
681.125	62
681.177	70
681.229	70
681.281	74
681.332	58
681.384	62
681.436	74
681.488	76
681.54	66
681.591	66
681.643	66
681.695	64
681.747	66
681.799	66
681.851	62
681.902	70
681.954	68
682.006	66
682.058	64
682.11	76
682.161	64
682.213	66
682.265	64
682.317	74
682.369	68
682.42	60
682.472	70
682.524	64
682.576	76
682.628	52
682.679	60
682.731	58
682.783	66
682.835	62
682.887	58
682.938	56
682.99	62
683.042	52
683.094	66
683.146	70
683.197	58
683.249	74
683.301	60
683.353	48
683.405	66
683.456	56
683.508	52
683.56	60
683.612	56
683.664	60
683.715	72
683.767	62
683.819	68
683.871	60
683.922	68
683.974	60
684.026	62
684.078	60
684.13	64
684.181	60
684.233	68
684.285	68
684.337	70
684.389	62
684.44	68
684.492	74
684.544	70
684.596	72
684.647	54
684.699	60
684.751	58
684.803	68
684.855	60
684.906	56
684.958	64
685.01	62
685.062	66
685.113	60
685.165	60
685.217	64
685.269	78
685.321	58
685.372	58
685.424	62
685.476	54
685.528	60
685.579	56
685.631	46
685.683	60
685.735	48
685.786	54
685.838	58
685.89	64
685.942	62
685.994	60
686.045	56
686.097	62
686.149	68
686.201	54
686.252	66
686.304	62
686.356	56
686.408	48
686.459	64
686.511	46
686.563	62
686.615	58
686.667	52
686.718	64
686.77	54
686.822	48
686.874	58
686.925	58
686.977	66
687.029	62
687.081	64
687.132	64
687.184	72
687.236	52
687.288	60
687.339	60
687.391	60
687.443	56
687.495	68
687.546	54
687.598	58
687.65	56
687.702	60
687.753	56
687.805	56
687.857	70
687.909	58
687.96	72
688.012	64
688.064	58
688.116	58
688.167	56
688.219	60
688.271	52
688.323	60
688.374	60
688.426	60
688.478	56
688.53	54
688.581	52
688.633	56
688.685	62
688.737	66
688.788	54
688.84	62
688.892	64
688.943	60
688.995	52
689.047	48
689.099	64
689.15	56
689.202	62
689.254	52
689.306	58
689.357	48
689.409	62
689.461	56
689.513	56
689.564	52
689.616	58
689.668	52
689.719	52
689.771	56
689.823	54
689.875	56
689.926	56
689.978	58
690.03	60
690.082	50
690.133	60
690.185	60
690.237	68
690.288	48
690.34	54
690.392	52
690.444	56
690.495	64
690.547	50
690.599	58
690.65	50
690.702	46
690.754	58
690.806	58
690.857	56
690.909	64
690.961	58
691.013	56
691.064	52
691.116	56
691.168	54
691.219	60
691.271	60
691.323	70
691.375	48
691.426	62
691.478	50
691.53	54
691.581	52
691.633	62
691.685	58
691.736	60
691.788	52
691.84	56
691.892	70
691.943	58
691.995	54
692.047	54
692.098	60
692.15	52
692.202	58
692.253	56
692.305	52
692.357	60
692.409	62
692.46	52
692.512	54
692.564	60
692.615	48
692.667	54
692.719	50
692.771	52
692.822	56
692.874	44
692.926	70
692.977	54
693.029	46
693.081	62
693.132	42
693.184	54
693.236	52
693.287	54
693.339	54
693.391	56
693.443	52
693.494	58
693.546	62
693.598	50
693.649	58
693.701	58
693.753	42
693.804	58
693.856	54
693.908	60
693.959	62
694.011	58
694.063	56
694.114	54
694.166	54
694.218	46
694.269	50
694.321	48
694.373	52
694.424	44
694.476	48
694.528	50
694.58	54
694.631	56
694.683	58
694.735	52
694.786	62
694.838	48
694.89	46
694.941	56
694.993	58
695.045	58
695.096	62
695.148	46
695.2	50
695.251	54
695.303	50
695.355	44
695.406	56
695.458	52
695.51	48
695.561	58
695.613	60
695.665	52
695.716	54
695.768	56
695.82	46
695.871	44
695.923	52
695.975	52
696.026	48
696.078	46
696.13	50
696.181	52
696.233	44
696.285	52
696.336	52
696.388	54
696.44	52
696.491	52
696.543	58
696.595	64
696.646	58
696.698	44
696.75	52
696.801	52
696.853	44
696.904	48
696.956	44
697.008	52
697.059	60
697.111	48
697.163	52
697.214	60
697.266	42
697.318	46
697.369	54
697.421	48
697.473	50
697.524	44
697.576	42
697.628	52
697.679	44
697.731	48
697.782	46
697.834	50
697.886	42
697.937	46
697.989	54
698.041	50
698.092	48
698.144	48
698.196	52
698.247	52
698.299	56
698.351	50
698.402	50
698.454	52
698.505	52
698.557	46
698.609	50
698.66	50
698.712	54
698.764	48
698.815	48
698.867	48
698.918	46
698.97	44
699.022	52
699.073	50
699.125	40
699.177	42
699.228	48
699.28	52
699.331	46
699.383	52
699.435	50
699.486	48
699.538	48
699.59	46
699.641	54
699.693	38
699.745	54
699.796	50
699.848	54
699.899	56
699.951	50
700.003	52
700.054	56
700.106	52
700.157	54
700.209	48
700.261	46
700.312	50
700.364	50
700.416	52
700.467	50
700.519	46
700.57	52
700.622	66
700.674	48
700.725	44
700.777	50
700.828	42
700.88	42
700.932	56
700.983	50
701.035	44
701.086	38
701.138	42
701.19	48
701.241	54
701.293	40
701.344	46
701.396	46
701.448	44
701.499	58
701.551	44
701.602	52
701.654	46
701.706	50
701.757	42
701.809	52
701.86	52
701.912	44
701.964	56
702.015	52
702.067	46
702.118	56
702.17	60
702.222	46
702.273	46
702.325	42
702.376	42
702.428	52
702.48	48
702.531	46
702.583	52
702.634	52
702.686	42
702.738	54
702.789	52
702.841	52
702.892	46
702.944	42
702.995	54
703.047	46
703.099	54
703.15	46
703.202	46
703.253	46
703.305	46
703.357	40
703.408	52
703.46	46
703.511	52
703.563	38
703.615	46
703.666	48
703.718	44
703.769	34
703.821	40
703.872	48
703.924	38
703.976	48
704.027	42
704.079	52
704.13	52
704.182	52
704.233	46
704.285	46
704.337	40
704.388	44
704.44	62
704.491	52
704.543	50
704.594	54
704.646	40
704.698	50
704.749	42
704.801	52
704.852	46
704.904	46
704.955	52
705.007	40
705.058	48
705.11	42
705.162	52
705.213	40
705.265	42
705.316	54
705.368	38
705.419	40
705.471	40
705.522	44
705.574	48
705.626	44
705.677	36
705.729	40
705.78	42
705.832	46
705.883	46
705.935	50
705.986	52
706.038	30
706.09	46
706.141	46
706.193	51.9602
706.244	41.9328
706.296	41.8385
706.347	43.7731
706.399	47.9393
706.45	32.4524
706.502	45.7347
706.553	41.9176
706.605	34.3383
706.657	49.6219
706.708	43.8955
706.76	40.0335
706.811	47.3274
706.863	44.8652
706.914	41.887
706.966	38.3194
707.017	34.8209
707.069	50.9474
707.12	46.8304
707.172	41.7465
707.224	31.3603
707.275	44.9324
707.327	34.2197
707.378	36.5405
707.43	44.3921
707.481	37.1191
707.533	36.9605
707.584	40.0226
707.636	47.3017
707.687	40.5109
707.739	39.1771
707.79	37.6856
707.842	46.8773
707.893	42.3868
707.945	40.5105
707.997	40.9114
708.048	49.9661
708.1	39.3334
708.151	38.8181
708.203	43.4099
708.254	44.7394
708.306	35.5221
708.357	39.5771
708.409	44.0221
708.46	43.2314
708.512	46.3097
708.563	49.9921
708.615	48.9922
708.666	45.86
708.718	52.3275
708.769	47.7192
708.821	40.5475
708.872	47.6021
708.924	36.7483
708.975	37.2464
709.027	41.24
709.078	42.5469
709.13	53.1314
709.182	37.7518
709.233	45.9268
709.285	33.6034
709.336	40.6321
709.388	45.36
709.439	38.0828
709.491	34.8199
709.542	39.6801
709.594	43.7048
709.645	40.2645
709.697	44.0645
709.748	37.3085
709.8	41.194
709.851	42.4276
709.903	37.607
709.954	40.5002
710.006	40.2249
710.057	44.6449
710.109	46.7059
710.16	41.5535
710.212	42.6503
710.263	42.8354
710.315	39.1228
710.366	44.1138
710.418	42
710.469	44.8073
710.521	43.9067
710.572	39.6436
710.624	40.8521
710.675	42.0253
710.727	41.9855
710.778	35.0163
710.83	41.4266
710.881	39.3849
710.933	46.754
710.984	44.4194
711.036	42.4447
711.087	42.0782
711.139	37.6154
711.19	42.9104
711.242	41.5999
711.293	38.0385
711.345	40.5979
711.396	41.0485
711.448	39.2566
711.499	39.8822
711.551	45.8672
711.602	44.2293
711.654	38.9535
711.705	38.5027
711.756	38.3055
711.808	39.0896
711.859	45.1018
711.911	31.4679
711.962	36.5846
712.014	34.88
712.065	37.1111
712.117	38.2592
712.168	41.9676
712.22	45.8713
712.271	41.3379
712.323	35.799
712.374	37.602
712.426	37.3334
712.477	37.389
712.529	37.4696
712.58	36.5439
712.632	36
712.683	38.4991
712.735	41.2866
712.786	35.6888
712.838	35.0454
712.889	36.3535
712.94	40.3754
712.992	36.9663
713.043	41.3225
713.095	38.6487
713.146	40.4823
713.198	34.002
713.249	33.4648
713.301	39.6251
713.352	48.3618
713.404	38.3778
713.455	39.8197
713.507	44.3996
713.558	39.4933
713.609	44.3613
713.661	38.9504
713.712	34.8624
713.764	35.5587
713.815	34.6001
713.867	42.6565
713.918	42.808
713.97	35.9701
714.021	34.1444
714.073	41.7524
714.124	38.5878
714.176	36.4984
714.227	37.1983
714.278	43.8055
714.33	37.1958
714.381	41.7742
714.433	41.1354
714.484	35.1159
714.536	35.4451
714.587	43.0463
714.639	36.8153
714.69	40.0369
714.742	39.2537
714.793	42.3569
714.844	44
714.896	43.6786
714.947	41.0896
714.999	34.6193
715.05	40.8021
715.102	39.1791
715.153	31.4824
715.205	38.0888
715.256	38.7313
715.307	41.7098
715.359	45.6461
715.41	29.7339
715.462	32.0343
715.513	38.3067
715.565	43.388
715.616	39.9816
715.667	38.1214
715.719	30.8234
715.77	38.1556
715.822	39.8657
715.873	32.5053
715.925	35.7805
715.976	36
716.028	36.0945
716.079	39.1836
716.13	31.4074
716.182	38.8487
716.233	39.7811
716.285	38.3253
716.336	39.6821
716.388	31.344
716.439	33.4949
716.49	46.0081
716.498	48
716.549	34
716.601	38
716.653	48
716.704	32
716.756	40
716.808	44
716.859	38
716.911	30
716.963	34
717.014	42
717.066	36
717.118	38
717.169	40
717.221	42
717.273	32
717.324	34
717.376	36
717.428	38
717.479	36
717.531	36
717.583	44
717.634	38
717.686	46
717.738	48
717.789	34
717.841	28
717.893	36
717.944	48
717.996	36
718.048	32
718.099	44
718.151	40
718.203	26
718.254	36
718.306	32
718.357	36
718.409	40
718.461	40
718.512	46
718.564	38
718.616	36
718.667	38
718.719	38
718.771	36
718.822	48
718.874	36
718.926	44
718.977	36
719.029	44
719.081	34
719.132	34
719.184	36
719.235	22
719.287	38
719.339	40
719.39	38
719.442	24
719.494	32
719.545	40
719.597	34
719.649	38
719.7	32
719.752	32
719.804	44
719.855	36
719.907	28
719.958	40
720.01	42
720.062	32
720.113	36
720.165	36
720.217	44
720.268	30
720.32	34
720.372	36
720.423	38
720.475	40
720.526	32
720.578	36
720.63	36
720.681	42
720.733	38
720.785	32
720.836	34
720.888	28
720.939	44
720.991	30
721.043	42
721.094	44
721.146	42
721.198	38
721.249	38
721.301	34
721.352	44
721.404	38
721.456	28
721.507	44
721.559	36
721.611	42
721.662	36
721.714	38
721.765	36
721.817	28
721.869	32
721.92	40
721.972	38
722.023	38
722.075	38
722.127	36
722.178	40
722.23	36
722.282	44
722.333	32
722.385	36
722.436	28
722.488	38
722.54	38
722.591	22
722.643	34
722.694	36
722.746	30
722.798	40
722.849	40
722.901	26
722.952	46
723.004	30
723.056	36
723.107	34
723.159	34
723.21	48
723.262	32
723.314	38
723.365	40
723.417	36
723.468	28
723.52	32
723.572	36
723.623	34
723.675	44
723.726	34
723.778	32
723.83	38
723.881	32
723.933	36
723.984	36
724.036	34
724.088	34
724.139	30
724.191	38
724.242	38
724.294	42
724.346	42
724.397	38
724.449	38
724.5	30
724.552	34
724.604	36
724.655	36
724.707	40
724.758	40
724.81	34
724.862	38
724.913	44
724.965	32
725.016	32
725.068	34
725.119	28
725.171	38
725.223	34
725.274	32
725.326	42
725.377	38
725.429	34
725.48	32
725.532	26
725.584	44
725.635	32
725.687	32
725.738	28
725.79	38
725.841	36
725.893	38
725.945	26
725.996	40
726.048	36
726.099	36
726.151	40
726.203	38
726.254	36
726.306	34
726.357	38
726.409	38
726.46	34
726.512	26
726.564	38
726.615	36
726.667	36
726.718	28
726.77	38
726.821	34
726.873	30
726.924	34
726.976	32
727.028	34
727.079	40
727.131	36
727.182	34
727.234	34
727.285	40
727.337	38
727.389	36
727.44	40
727.492	36
727.543	36
727.595	38
727.646	36
727.698	40
727.749	38
727.801	32
727.853	34
727.904	34
727.956	38
728.007	40
728.059	36
728.11	36
728.162	34
728.213	34
728.265	34
728.317	30
728.368	36
728.42	32
728.471	30
728.523	36
728.574	30
728.626	32
728.677	36
728.729	40
728.78	38
728.832	38
728.884	26
728.935	32
728.987	34
729.038	34
729.09	28
729.141	28
729.193	34
729.244	36
729.296	36
729.347	24
729.399	34
729.451	38
729.502	30
729.554	28
729.605	40
729.657	32
729.708	38
729.76	34
729.811	32
729.863	32
729.914	42
729.966	42
730.017	42
730.069	40
730.12	30
730.172	24
730.224	34
730.275	28
730.327	34
730.378	28
730.43	32
730.481	32
730.533	36
730.584	30
730.636	30
730.687	30
730.739	26
730.79	36
730.842	32
730.893	30
730.945	36
730.996	34
731.048	32
731.099	36
731.151	28
731.202	30
731.254	30
731.305	38
731.357	34
731.409	28
731.46	42
731.512	38
731.563	32
731.615	32
731.666	34
731.718	36
731.769	28
731.821	32
731.872	30
731.924	36
731.975	34
732.027	34
732.078	28
732.13	30
732.181	36
732.233	32
732.284	40
732.336	36
732.387	28
732.439	24
732.49	30
732.542	26
732.593	32
732.645	24
732.696	38
732.748	38
732.799	30
732.851	34
732.902	40
732.954	36
733.005	28
733.057	28
733.108	34
733.16	32
733.211	36
733.263	32
733.314	26
733.366	30
733.417	28
733.469	30
733.52	32
733.572	34
733.623	30
733.675	38
733.726	28
733.778	30
733.829	34
733.881	20
733.932	40
733.984	40
734.035	28
734.087	36
734.138	28
734.19	32
734.241	32
734.293	34
734.344	36
734.396	34
734.447	36
734.498	34
734.55	32
734.601	26
734.653	36
734.704	44
734.756	32
734.807	24
734.859	34
734.91	44
734.962	32
735.013	40
735.065	24
735.116	36
735.168	40
735.219	32
735.271	38
735.322	32
735.374	36
735.425	30
735.477	32
735.528	34
735.58	28
735.631	30
735.682	30
735.734	32
735.785	36
735.837	30
735.888	30
735.94	40
735.991	34
736.043	30
736.094	36
736.146	30
736.197	34
736.249	34
736.3	40
736.352	36
736.403	40
736.454	30
736.506	38
736.557	32
736.609	34
736.66	34
736.712	30
736.763	30
736.815	32
736.866	36
736.918	40
736.969	22
737.02	40
737.072	32
737.123	42
737.175	34
737.226	30
737.278	36
737.329	34
737.381	34
737.432	28
737.484	34
737.535	36
737.586	26
737.638	32
737.689	30
737.741	32
737.792	28
737.844	34
737.895	32
737.947	36
737.998	28
738.049	30
738.101	38
738.152	24
738.204	28
738.255	36
738.307	30
738.358	32
738.41	28
738.461	30
738.512	30
738.564	32
738.615	30
738.667	26
738.718	32
738.77	36
738.821	36
738.872	38
738.924	28
738.975	26
739.027	18
739.078	28
739.13	28
739.181	36
739.232	40
739.284	26
739.335	32
739.387	30
739.438	30
739.49	36
739.541	36
739.592	36
739.644	28
739.695	36
739.747	32
739.798	30
739.85	36
739.901	28
739.952	22
740.004	28
740.055	28
740.107	40
740.158	30
740.21	30
740.261	26
740.312	26
740.364	28
740.415	36
740.467	40
740.518	30
740.569	30
740.621	32
740.672	32
740.724	26
740.775	22
740.827	32
740.878	38
740.929	36
740.981	28
741.032	28
741.084	28
741.135	32
741.186	30
741.238	42
741.289	24
741.341	34
741.392	34
741.443	32
741.495	34
741.546	38
741.598	38
741.649	32
741.7	18
741.752	32
741.803	30
741.855	30
741.906	32
741.957	32
742.009	30
742.06	40
742.112	26
742.163	32
742.214	38
742.266	34
742.317	42
742.369	30
742.42	28
742.471	20
742.523	42
742.574	34
742.626	38
742.677	40
742.728	28
742.78	30
742.831	28
742.883	34
742.934	32
742.985	32
743.037	38
743.088	28
743.139	36
743.191	36
743.242	26
743.294	30
743.345	30
743.396	26
743.448	30
743.499	36
743.551	28
743.602	32
743.653	36
743.705	24
743.756	36
743.807	34
743.859	28
743.91	38
743.962	30
744.013	42
744.064	26
744.116	40
744.167	28
744.218	34
744.27	30
744.321	32
744.373	28
744.424	34
744.475	26
744.527	36
744.578	32
744.629	32
744.681	28
744.732	32
744.784	32
744.835	28
744.886	34
744.938	36
744.989	28
745.04	26
745.092	26
745.143	34
745.194	30
745.246	30
745.297	32
745.348	34
745.4	32
745.451	26
745.503	28
745.554	26
745.605	34
745.657	30
745.708	36
745.759	24
745.811	36
745.862	34
745.913	38
745.965	32
746.016	36
746.067	26
746.119	32
746.17	26
746.221	40
746.273	32
746.324	28
746.376	38
746.427	40
746.478	28
746.53	28
746.581	30
746.632	30
746.684	34
746.735	30
746.786	30
746.838	26
746.889	32
746.94	28
746.992	36
747.043	28
747.094	34
747.146	30
747.197	26
747.248	30
747.3	32
747.351	32
747.402	34
747.454	22
747.505	34
747.556	32
747.608	38
747.659	28
747.71	34
747.762	30
747.813	34
747.864	36
747.916	32
747.967	30
748.018	18
748.07	28
748.121	28
748.172	42
748.224	38
748.275	30
748.326	32
748.378	26
748.429	22
748.48	30
748.532	22
748.583	24
748.634	35.9901
748.686	25.9829
748.737	22.1119
748.788	27.9966
748.84	43.6434
748.891	30.1107
748.942	30.1075
748.993	29.9754
749.045	31.9984
749.096	37.3766
749.147	29.8176
749.199	27.8924
749.25	29.6269
749.301	33.7573
749.353	37.7114
749.404	31.8631
749.455	29.8358
749.507	32.1913
749.558	28.4667
749.609	31.9247
749.661	29.5853
749.712	29.402
749.763	26.134
749.814	24.6063
749.866	29.7129
749.917	28.0427
749.968	23.8736
750.02	34.7978
750.071	31.1513
750.122	24.4104
750.174	29.9626
750.225	23.928
750.276	31.131
750.328	21.6343
750.379	27.4406
750.43	27.3212
750.481	24.3632
750.533	31.0787
750.584	29.8182
750.635	28.1881
750.687	37.3739
750.738	32.5594
750.789	27.1422
750.84	28.2707
750.892	26.6616
750.943	35.1004
750.994	32.6229
751.046	27.7564
751.097	22.9846
751.148	28.5224
751.2	36.6901
751.251	28.8069
751.302	30.314
751.353	26.3797
751.405	29.7794
751.456	26.7058
751.507	23.1251
751.559	28.6377
751.61	27.7696
751.661	25.8281
751.712	28.3602
751.764	32.9364
751.815	35.7217
751.866	27.8877
751.918	24.5672
751.969	32.9591
752.02	28.5331
752.071	24.4074
752.123	30.5965
752.174	25.8846
752.225	26.806
752.276	27.8247
752.328	27.9931
752.379	32
752.43	30.7413
752.482	24.6881
752.533	27.5454
752.584	28.741
752.635	27.9029
752.687	32.3325
752.738	31.0696
752.789	26.1244
752.84	26.6678
752.892	23.095
752.943	18.5224
752.994	27.8155
753.046	31.6826
753.097	26.6907
753.148	31.0182
753.199	29.0446
753.251	33.8149
753.302	30.0237
753.353	27.4983
753.404	28.5071
753.456	31.1921
753.507	28.0493
753.558	28.2752
753.609	28.492
753.661	32
753.712	31.2751
753.763	24.0415
753.815	25.1309
753.866	24.8241
753.917	23.0896
753.968	27.1896
754.02	30.1281
754.071	30.4908
754.122	24.8489
754.173	23.7358
754.225	29.3532
754.276	24.9516
754.327	24.1641
754.378	28.8474
754.43	29.5392
754.481	24.0099
754.532	31.8053
754.583	27.0953
754.635	28.3055
754.686	25.0039
754.737	26.2639
754.788	33.5729
754.84	26.5438
754.891	30.073
754.942	27.8384
754.993	27.9941
755.044	30.0296
755.096	18.3695
755.147	27.6971
755.198	32.1431
755.249	28.9771
755.301	31.8722
755.352	29.2652
755.403	21.2177
755.454	37.2178
755.506	24
755.557	28.0111
755.608	24.5499
755.659	35.1898
755.711	33.077
755.762	27.1562
755.813	25.7546
755.864	25.2778
755.916	25.1964
755.967	30.2311
756.018	28.7836
756.069	29.3512
756.12	26.9154
756.172	27.9478
756.223	27.676
756.274	26.0123
756.325	27.4869
756.377	24.4734
756.428	29.4814
756.479	17.9259
756.53	25.2604
756.582	35.5179
756.633	27.1291
756.684	26.2125
756.735	27.042
756.786	31.0461
756.838	25.0936
756.889	25.1339
756.94	24.8544
756.991	32.025
757.042	32.4698
757.094	25.5129
757.145	27.0697
757.196	35.0142
757.247	24.0839
757.299	24.7904
757.35	30.1501
757.401	26.504
757.452	29.9293
757.503	24.8327
757.555	30.6485
757.606	32.9851
757.657	28.8875
757.708	23.7469
757.76	27.0845
757.811	28.4279
757.862	26.2535
757.913	26.7761
757.964	26.1841
758.016	30.9747
758.067	28.588
758.118	28
758.169	23.245
758.22	27.2794
758.272	31.3192
758.323	35.2977
758.374	30.4592
758.425	28.0894
758.476	28
758.528	29.1571
758.579	28.4086
758.63	24.8947
758.681	28.756
758.732	26.9508
758.784	30.5688
758.835	25.8705
758.886	28.5509
758.898	30
758.95	28
759.001	34
759.053	28
759.104	32
759.156	30
759.207	32
759.258	24
759.31	24
759.361	14
759.413	24
759.464	30
759.516	30
759.567	30
759.618	18
759.67	28
759.721	30
759.773	32
759.824	24
759.876	30
759.927	20
759.979	26
760.03	22
760.081	20
760.133	24
760.184	32
760.236	26
760.287	26
760.339	26
760.39	28
760.441	28
760.493	30
760.544	22
760.596	32
760.647	24
760.699	22
760.75	30
760.801	26
760.853	26
760.904	32
760.956	28
761.007	28
761.059	26
761.11	28
761.161	32
761.213	26
761.264	20
761.316	24
761.367	26
761.419	24
761.47	24
761.521	30
761.573	26
761.624	24
761.676	30
761.727	26
761.779	24
761.83	24
761.881	36
761.933	20
761.984	28
762.036	24
762.087	20
762.138	32
762.19	24
762.241	26
762.293	28
762.344	28
762.395	22
762.447	26
762.498	26
762.55	28
762.601	34
762.653	24
762.704	28
762.755	34
762.807	26
762.858	28
762.91	26
762.961	22
763.012	28
763.064	18
763.115	32
763.167	20
763.218	32
763.269	26
763.321	28
763.372	32
763.424	36
763.475	30
763.526	24
763.578	34
763.629	24
763.681	24
763.732	24
763.783	24
763.835	24
763.886	30
763.938	28
763.989	36
764.04	30
764.092	28
764.143	26
764.195	22
764.246	28
764.297	40
764.349	24
764.4	24
764.451	24
764.503	22
764.554	36
764.606	30
764.657	30
764.708	34
764.76	22
764.811	26
764.863	38
764.914	24
764.965	26
765.017	24
765.068	28
765.119	28
765.171	26
765.222	32
765.274	28
765.325	26
765.376	30
765.428	28
765.479	28
765.531	26
765.582	32
765.633	26
765.685	16
765.736	24
765.787	28
765.839	32
765.89	28
765.942	18
765.993	32
766.044	30
766.096	32
766.147	26
766.198	36
766.25	28
766.301	24
766.352	26
766.404	30
766.455	26
766.507	28
766.558	30
766.609	34
766.661	28
766.712	24
766.763	32
766.815	32
766.866	28
766.917	22
766.969	26
767.02	28
767.072	18
767.123	22
767.174	28
767.226	28
767.277	30
767.328	22
767.38	28
767.431	20
767.482	20
767.534	32
767.585	28
767.637	24
767.688	32
767.739	22
767.791	22
767.842	28
767.893	28
767.945	28
767.996	34
768.047	38
768.099	24
768.15	24
768.201	22
768.253	24
768.304	20
768.355	22
768.407	32
768.458	28
768.509	32
768.561	18
768.612	36
768.664	24
768.715	30
768.766	22
768.818	26
768.869	30
768.92	22
768.972	34
769.023	30
769.074	26
769.126	30
769.177	20
769.228	30
769.28	30
769.331	32
769.382	20
769.434	30
769.485	24
769.536	22
769.588	26
769.639	34
769.69	24
769.742	30
769.793	24
769.844	32
769.896	30
769.947	28
769.998	24
770.05	30
770.101	22
770.152	28
770.204	32
770.255	30
770.306	30
770.358	30
770.409	32
770.46	30
770.512	20
770.563	26
770.614	24
770.665	30
770.717	32
770.768	26
770.819	24
770.871	26
770.922	40
770.973	26
771.025	26
771.076	28
771.127	24
771.179	28
771.23	28
771.281	22
771.333	24
771.384	32
771.435	22
771.487	18
771.538	24
771.589	28
771.641	24
771.692	26
771.743	26
771.794	18
771.846	30
771.897	26
771.948	28
772	28
772.051	24
772.102	30
772.154	30
772.205	26
772.256	28
772.307	24
772.359	34
772.41	36
772.461	28
772.513	32
772.564	30
772.615	28
772.667	28
772.718	30
772.769	28
772.82	28
772.872	26
772.923	32
772.974	24
773.026	24
773.077	28
773.128	16
773.18	26
773.231	20
773.282	28
773.333	20
773.385	24
773.436	36
773.487	20
773.539	30
773.59	30
773.641	30
773.692	30
773.744	24
773.795	26
773.846	36
773.898	26
773.949	28
774	24
774.051	26
774.103	20
774.154	30
774.205	26
774.257	22
774.308	26
774.359	28
774.41	24
774.462	30
774.513	28
774.564	24
774.616	22
774.667	22
774.718	24
774.769	24
774.821	26
774.872	24
774.923	24
774.974	24
775.026	28
775.077	28
775.128	28
775.18	22
775.231	34
775.282	20
775.333	22
775.385	26
775.436	20
775.487	30
775.538	28
775.59	24
775.641	26
775.692	22
775.743	34
775.795	24
775.846	22
775.897	22
775.949	30
776	28
776.051	24
776.102	28
776.154	20
776.205	28
776.256	26
776.307	26
776.359	22
776.41	18
776.461	18
776.512	24
776.564	20
776.615	26
776.666	30
776.717	26
776.769	28
776.82	34
776.871	28
776.922	30
776.974	22
777.025	28
777.076	30
777.127	28
777.179	16
777.23	30
777.281	24
777.332	24
777.384	26
777.435	28
777.486	24
777.537	32
777.589	24
777.64	28
777.691	16
777.742	24
777.794	30
777.845	36
777.896	28
777.947	28
777.999	30
778.05	30
778.101	28
778.152	22
778.203	30
778.255	26
778.306	30
778.357	34
778.408	22
778.46	30
778.511	22
778.562	28
778.613	28
778.665	28
778.716	26
778.767	26
778.818	22
778.87	20
778.921	24
778.972	26
779.023	20
779.074	20
779.126	28
779.177	24
779.228	30
779.279	28
779.331	18
779.382	28
779.433	24
779.484	28
779.535	26
779.587	26
779.638	32
779.689	34
779.74	24
779.792	26
779.843	22
779.894	30
779.945	32
779.996	18
780.048	28
780.099	18
780.15	34
780.201	28
780.253	24
780.304	28
780.355	24
780.406	26
780.457	20
780.509	20
780.56	34
780.611	26
780.662	26
780.713	16
780.765	30
780.816	32
780.867	30
780.918	26
780.969	20
781.021	28
781.072	24
781.123	32
781.174	28
781.225	24
781.277	26
781.328	20
781.379	22
781.43	24
781.481	22
781.533	26
781.584	18
781.635	28
781.686	18
781.737	26
781.789	22
781.84	30
781.891	26
781.942	26
781.993	30
782.045	26
782.096	32
782.147	32
782.198	26
782.249	28
782.3	22
782.352	28
782.403	26
782.454	20
782.505	16
782.556	22
782.608	20
782.659	26
782.71	30
782.761	26
782.812	30
782.864	28
782.915	30
782.966	20
783.017	22
783.068	20
783.119	30
783.171	32
783.222	30
783.273	22
783.324	20
783.375	24
783.426	30
783.478	26
783.529	24
783.58	28
783.631	24
783.682	24
783.734	26
783.785	28
783.836	24
783.887	26
783.938	30
783.989	22
784.041	20
784.092	32
784.143	24
784.194	30
784.245	30
784.296	24
784.348	34
784.399	24
784.45	20
784.501	32
784.552	28
784.603	26
784.654	28
784.706	20
784.757	24
784.808	28
784.859	24
784.91	30
784.961	26
785.013	22
785.064	20
785.115	18
785.166	26
785.217	24
785.268	22
785.32	30
785.371	24
785.422	28
785.473	26
785.524	16
785.575	28
785.626	30
785.678	22
785.729	24
785.78	30
785.831	22
785.882	28
785.933	26
785.984	24
786.036	28
786.087	22
786.138	22
786.189	24
786.24	28
786.291	24
786.342	14
786.394	20
786.445	24
786.496	30
786.547	20
786.598	22
786.649	24
786.7	20
786.752	20
786.803	24
786.854	26
786.905	24
786.956	30
787.007	30
787.058	22
787.109	16
787.161	16
787.212	28
787.263	28
787.314	24
787.365	32
787.416	26
787.467	28
787.518	18
787.57	20
787.621	20
787.672	28
787.723	24
787.774	32
787.825	22
787.876	28
787.927	24
787.979	20
788.03	20
788.081	28
788.132	26
788.183	28
788.234	20
788.285	26
788.336	30
788.388	20
788.439	18
788.49	20
788.541	26
788.592	24
788.643	22
788.694	24
788.745	26
788.796	22
788.848	18
788.899	24
788.95	28
789.001	24
789.052	20
789.103	22
789.154	24
789.205	24
789.256	22
789.307	24
789.359	22
789.41	30
789.461	34
789.512	28
789.563	26
789.614	22
789.665	20
789.716	22
789.767	26
789.818	28
789.87	28
789.921	28
789.972	18
790.023	30
790.074	26
790.125	26
790.176	28
790.227	22
790.278	18
790.329	30
790.381	26
790.432	28
790.483	28
790.534	20
790.585	32
790.636	18
790.687	16
790.738	30
790.789	20
790.84	24
790.891	26
790.943	22
790.994	24
791.045	30
791.096	22
791.147	24
791.198	20
791.249	26
791.3	26
791.351	30
791.402	26
791.453	26
791.504	22
791.555	27
791.607	32
791.658	28
791.709	26
791.76	28
791.811	24
791.862	32
791.913	18
791.964	26
792.015	18
792.066	18
792.117	26
792.168	24
792.219	26
792.27	26
792.322	22
792.373	22
792.424	20
792.475	22
792.526	24
792.577	18
792.628	12
792.679	28
792.73	22
792.781	24
792.832	28
792.883	20
792.934	32
792.985	20
793.036	22
793.087	20
793.138	28
793.19	26
793.241	24
793.292	26
793.343	28
793.394	18
793.445	24
793.496	20
793.547	20
793.598	24
793.649	28
793.7	18
793.751	22
793.802	22
793.853	20
793.904	22
793.955	26
794.006	26
794.057	22
794.108	28
794.159	28
794.211	20
794.262	22
794.313	26
794.364	18
794.415	22
794.466	22
794.517	32
794.568	24
794.619	20
794.67	24
794.721	18
794.772	28
794.823	20
794.874	28
794.925	28
794.976	18
795.027	18
795.078	26
795.129	32
795.18	24
795.231	22
795.282	24
795.333	28
795.384	22
795.435	16
795.486	28
795.537	18
795.588	28
795.639	20
795.69	22
795.742	22
795.793	24
795.844	24
795.895	24
795.946	30
795.997	22
796.048	24
796.099	30
796.15	18
796.201	26
796.252	18
796.303	28
796.354	24
796.405	22
796.456	28
796.507	18
796.558	20
796.609	22
796.66	24
796.711	20
796.762	22
796.813	18
796.864	24
796.915	20
796.966	22
797.017	26
797.068	26
797.119	14
797.17	20
797.221	18
797.272	28
797.323	26
797.374	24
797.425	20
797.476	14
797.527	28
797.578	22
797.629	26
797.68	22
797.731	18
797.782	16
797.833	18
797.884	22
797.935	26
797.986	28
798.037	14
798.088	26
798.139	28
798.19	24
798.241	14
798.292	30
798.343	16
798.394	18
798.445	16
798.496	26
798.547	16
798.598	20
798.649	18
798.7	24
798.751	22
798.802	26
798.853	20
798.904	26
798.955	14
799.006	26
799.057	16
799.108	28
799.159	16
799.21	26
799.261	22
799.312	18
799.362	26
799.414	14
799.464	24
799.515	22
799.566	24
799.617	18
799.668	34
799.719	24
799.77	16
799.821	26
799.872	20
799.923	28
799.974	30
