#Acq. time (s)=	1
#Accumulations=	1
#Range (nm)=	580...760
#Windows=	4
#Auto scanning=	Off
#Autofocus=	Off
#AutoExposure=	Off
#Spike filter=	Off
#Delay time (s)=	0
#Binning=	1
#Readout mode=	Signal
#DeNoise=	Off
#ICS correction=	Off
#Dark correction=	Off
#Inst. Process=	Off
#Detector temperature (°C)=	-60.16
#Instrument=	LabRAM HR Evol
#Detector=	Syncerity OE
#Objective=	x100_VIS
#Grating=	600 (500nm)
#ND Filter=	50%
#Laser=	532nm_Edge
#Hole=	300.003
#Range=	Visible
#AFM=	Off
#Laser. Pol.=	HWPL-VIS
#Raman. Pol.=	P-350/2300
#Laser Pol. (°)=	180
#Raman Pol. (°)=	130
#StageXY (mm)=	75x50
#StageZ=	Z motor
#X (µm)=	-26830.5
#Y (µm)=	-2277.2
#Z (µm)=	-1341.5
#Full time(s)=	35
#Project=	A
#Sample=	B
#Site=	C
#Title=	-30-3-0p1_78
#Remark=	
#Date=	14.08.2020 14:48
#Acquired=	14.08.2020 14:48:58
580.073	38
580.125	38
580.177	32
580.23	30
580.282	36
580.334	26
580.387	36
580.439	28
580.492	26
580.544	30
580.596	34
580.649	36
580.701	40
580.753	32
580.806	34
580.858	28
580.91	28
580.963	28
581.015	36
581.067	28
581.12	30
581.172	30
581.224	28
581.277	34
581.329	40
581.382	24
581.434	30
581.486	20
581.539	30
581.591	36
581.643	32
581.696	32
581.748	20
581.8	26
581.853	32
581.905	24
581.957	34
582.01	40
582.062	28
582.114	22
582.167	32
582.219	28
582.271	24
582.324	28
582.376	22
582.429	32
582.481	38
582.533	32
582.586	30
582.638	28
582.69	20
582.743	32
582.795	28
582.847	26
582.9	32
582.952	32
583.004	24
583.057	34
583.109	34
583.161	34
583.214	28
583.266	32
583.318	30
583.371	30
583.423	32
583.475	32
583.528	28
583.58	34
583.632	26
583.685	28
583.737	26
583.789	34
583.842	32
583.894	28
583.946	28
583.999	26
584.051	30
584.103	32
584.156	28
584.208	24
584.26	18
584.313	28
584.365	36
584.417	34
584.47	34
584.522	28
584.574	24
584.627	32
584.679	28
584.731	26
584.784	30
584.836	30
584.888	34
584.941	16
584.993	30
585.045	28
585.097	20
585.15	26
585.202	32
585.254	28
585.307	26
585.359	32
585.411	22
585.464	30
585.516	26
585.568	32
585.621	28
585.673	22
585.725	26
585.778	24
585.83	42
585.882	30
585.935	36
585.987	34
586.039	26
586.092	30
586.144	34
586.196	28
586.248	30
586.301	32
586.353	32
586.405	30
586.458	32
586.51	24
586.562	30
586.615	30
586.667	24
586.719	34
586.772	22
586.824	28
586.876	22
586.929	36
586.981	32
587.033	32
587.085	32
587.138	26
587.19	40
587.242	30
587.295	22
587.347	34
587.399	32
587.452	34
587.504	38
587.556	32
587.608	26
587.661	34
587.713	42
587.765	28
587.818	32
587.87	28
587.922	30
587.975	20
588.027	32
588.079	32
588.131	38
588.184	36
588.236	32
588.288	34
588.341	30
588.393	38
588.445	28
588.498	32
588.55	30
588.602	30
588.654	34
588.707	36
588.759	32
588.811	32
588.864	34
588.916	30
588.968	28
589.02	26
589.073	34
589.125	26
589.177	40
589.23	26
589.282	24
589.334	28
589.386	22
589.439	36
589.491	32
589.543	28
589.596	28
589.648	32
589.7	26
589.753	30
589.805	32
589.857	26
589.909	22
589.962	38
590.014	32
590.066	30
590.118	26
590.171	18
590.223	32
590.275	38
590.328	30
590.38	26
590.432	30
590.484	32
590.537	28
590.589	28
590.641	34
590.694	28
590.746	30
590.798	22
590.85	28
590.903	28
590.955	34
591.007	36
591.059	30
591.112	30
591.164	36
591.216	32
591.268	28
591.321	28
591.373	26
591.425	32
591.478	28
591.53	32
591.582	38
591.634	30
591.687	32
591.739	32
591.791	30
591.843	40
591.896	34
591.948	28
592	30
592.053	30
592.105	28
592.157	32
592.209	34
592.262	24
592.314	32
592.366	32
592.418	34
592.471	26
592.523	22
592.575	36
592.627	30
592.68	26
592.732	26
592.784	30
592.836	32
592.889	34
592.941	34
592.993	36
593.045	28
593.098	28
593.15	28
593.202	30
593.255	26
593.307	30
593.359	36
593.411	32
593.464	36
593.516	26
593.568	34
593.62	30
593.672	26
593.725	28
593.777	36
593.829	26
593.882	32
593.934	34
593.986	32
594.038	32
594.091	28
594.143	24
594.195	28
594.247	28
594.299	28
594.352	30
594.404	26
594.456	42
594.508	28
594.561	36
594.613	34
594.665	36
594.717	36
594.77	32
594.822	32
594.874	26
594.926	38
594.979	34
595.031	26
595.083	34
595.135	30
595.188	34
595.24	42
595.292	26
595.344	34
595.397	24
595.449	24
595.501	26
595.553	30
595.605	26
595.658	30
595.71	30
595.762	32
595.814	32
595.867	26
595.919	30
595.971	34
596.023	30
596.076	32
596.128	34
596.18	26
596.232	28
596.284	26
596.337	40
596.389	30
596.441	32
596.493	36
596.546	28
596.598	34
596.65	36
596.702	28
596.754	24
596.807	30
596.859	28
596.911	20
596.963	28
597.016	38
597.068	22
597.12	30
597.172	34
597.224	28
597.277	34
597.329	26
597.381	38
597.433	30
597.486	30
597.538	30
597.59	38
597.642	22
597.694	34
597.747	32
597.799	26
597.851	32
597.903	36
597.956	32
598.008	28
598.06	36
598.112	36
598.164	36
598.217	34
598.269	34
598.321	24
598.373	34
598.425	30
598.478	32
598.53	30
598.582	36
598.634	34
598.686	34
598.739	32
598.791	26
598.843	24
598.895	36
598.947	36
599	34
599.052	34
599.104	24
599.156	26
599.208	32
599.261	34
599.313	32
599.365	28
599.417	34
599.469	28
599.522	30
599.574	26
599.626	32
599.678	30
599.73	36
599.783	30
599.835	28
599.887	28
599.939	32
599.991	26
600.044	36
600.096	32
600.148	38
600.2	28
600.252	20
600.305	30
600.357	22
600.409	24
600.461	32
600.513	32
600.566	38
600.618	30
600.67	20
600.722	32
600.774	28
600.826	30
600.879	24
600.931	30
600.983	30
601.035	26
601.087	40
601.14	32
601.192	34
601.244	30
601.296	28
601.348	28
601.401	28
601.453	32
601.505	36
601.557	40
601.609	38
601.661	26
601.714	28
601.766	42
601.818	28
601.87	30
601.922	28
601.974	32
602.027	24
602.079	38
602.131	30
602.183	30
602.235	40
602.287	32
602.34	30
602.392	36
602.444	32
602.496	28
602.548	30
602.601	28
602.653	34
602.705	26
602.757	32
602.809	26
602.861	26
602.914	24
602.966	34
603.018	30
603.07	32
603.122	28
603.174	30
603.227	34
603.279	38
603.331	40
603.383	30
603.435	40
603.487	36
603.54	34
603.592	34
603.644	36
603.696	40
603.748	32
603.8	34
603.852	30
603.905	28
603.957	28
604.009	34
604.061	26
604.113	30
604.165	32
604.218	42
604.27	24
604.322	22
604.374	38
604.426	34
604.478	38
604.531	36
604.583	32
604.635	32
604.687	40
604.739	36
604.791	32
604.843	36
604.896	36
604.948	28
605	28
605.052	28
605.104	34
605.156	36
605.208	40
605.261	34
605.313	34
605.365	32
605.417	34
605.469	36
605.521	32
605.573	30
605.626	30
605.678	36
605.73	36
605.782	28
605.834	28
605.886	30
605.938	38
605.991	34
606.043	30
606.095	40
606.147	36
606.199	38
606.251	32
606.303	40
606.356	32
606.408	32
606.46	32
606.512	24
606.564	40
606.616	36
606.668	32
606.72	32
606.773	28
606.825	22
606.877	38
606.929	44
606.981	34
607.033	40
607.085	30
607.138	30
607.19	28
607.242	36
607.294	34
607.346	34
607.398	28
607.45	30
607.502	40
607.555	36
607.607	40
607.659	32
607.711	32
607.763	36
607.815	24
607.867	32
607.919	28
607.971	28
608.024	30
608.076	30
608.128	40
608.18	44
608.232	28
608.284	36
608.336	30
608.388	36
608.441	24
608.493	26
608.545	32
608.597	30
608.649	32
608.701	34
608.753	32
608.805	36
608.857	40
608.91	38
608.962	30
609.014	40
609.066	30
609.118	34
609.17	34
609.222	34
609.274	34
609.326	40
609.379	34
609.431	34
609.483	36
609.535	26
609.587	40
609.639	32
609.691	38
609.743	40
609.795	34
609.847	34
609.9	34
609.952	38
610.004	36
610.056	36
610.108	36
610.16	30
610.212	44
610.264	36
610.316	40
610.368	36
610.421	36
610.473	44
610.525	34
610.577	36
610.629	36
610.681	32
610.733	38
610.785	34
610.837	40
610.889	42
610.942	42
610.994	34
611.046	32
611.098	40
611.15	40
611.202	42
611.254	32
611.306	44
611.358	40
611.41	40
611.462	42
611.514	36
611.567	34
611.619	34
611.671	38
611.723	38
611.775	36
611.827	48
611.879	44
611.931	40
611.983	42
612.035	42
612.087	40
612.139	34
612.192	36
612.244	36
612.296	42
612.348	38
612.4	34
612.452	38
612.504	50
612.556	36
612.608	38
612.66	46
612.712	38
612.764	36
612.816	38
612.869	36
612.921	30
612.973	36
613.025	28
613.077	36
613.129	36
613.181	44
613.233	42
613.285	34
613.337	40
613.389	34
613.441	40
613.493	34
613.545	38
613.597	50
613.65	44
613.702	36
613.754	42
613.806	30
613.858	46
613.91	38
613.962	40
614.014	38
614.066	34
614.118	38
614.17	38
614.222	42
614.274	38
614.326	32
614.378	40
614.43	36
614.482	38
614.535	36
614.587	40
614.639	36
614.691	30
614.743	38
614.795	30
614.847	44
614.899	48
614.951	26
615.003	40
615.055	36
615.107	50
615.159	40
615.211	38
615.263	40
615.315	46
615.367	44
615.419	38
615.471	36
615.523	40
615.576	46
615.628	34
615.68	48
615.732	52
615.784	28
615.836	38
615.888	36
615.94	30
615.992	44
616.044	38
616.096	36
616.148	42
616.2	44
616.252	48
616.304	36
616.356	42
616.408	42
616.46	38
616.512	36
616.564	40
616.616	36
616.668	42
616.72	38
616.772	34
616.825	46
616.877	38
616.929	40
616.981	46
617.033	36
617.085	42
617.137	40
617.189	42
617.241	42
617.293	40
617.345	34
617.397	46
617.449	46
617.501	42
617.553	36
617.605	36
617.657	40
617.709	44
617.761	46
617.813	44
617.865	42
617.917	46
617.969	44
618.021	42
618.073	48
618.125	44
618.177	44
618.229	42
618.281	44
618.333	38
618.385	56
618.437	46
618.489	40
618.541	42
618.593	50
618.645	48
618.697	46
618.749	48
618.801	48
618.853	54
618.905	46
618.957	50
619.009	42
619.061	48
619.113	44
619.165	46
619.217	46
619.269	50
619.321	48
619.373	48
619.425	46
619.477	42
619.529	42
619.581	42
619.633	48
619.685	40
619.737	46
619.789	44
619.841	50
619.893	52
619.945	54
619.997	40
620.049	44
620.102	40
620.154	36
620.206	54
620.258	42
620.31	52
620.362	52
620.414	50
620.465	42
620.517	44
620.569	48
620.621	40
620.673	52
620.725	46
620.777	40
620.829	48
620.881	52
620.933	58
620.985	50
621.037	48
621.089	44
621.141	56
621.193	40
621.245	56
621.297	50
621.349	44
621.401	56
621.453	34
621.505	44
621.557	42
621.609	48
621.661	56
621.713	44
621.765	44
621.817	46
621.869	46
621.921	46
621.973	54
622.025	56
622.077	48
622.129	48
622.181	46
622.233	50
622.285	52
622.337	50
622.389	58
622.441	52
622.493	52
622.545	44
622.597	48
622.649	44
622.701	52
622.753	42
622.805	56
622.857	54
622.909	51.9901
622.961	47.9366
623.013	38.1051
623.065	47.9413
623.117	53.966
623.169	47.9341
623.22	42.1714
623.272	53.8401
623.324	53.7629
623.376	44.1098
623.428	51.9455
623.48	49.7417
623.532	38.0683
623.584	53.3683
623.636	48.4344
623.688	47.9964
623.74	47.4468
623.792	48.1343
623.844	46.5468
623.896	55.7674
623.948	55.481
624	50.1654
624.052	54.2956
624.104	49.4942
624.156	47.0028
624.208	51.6007
624.26	47.5399
624.312	51.3269
624.364	44.5616
624.416	49.9273
624.468	43.202
624.519	47.0815
624.571	43.6849
624.623	45.8048
624.675	45.5433
624.727	47.3032
624.779	54.8606
624.831	48.7969
624.883	56.976
624.935	46.232
624.987	52.5638
625.039	50.0776
625.091	55.614
625.143	56.9165
625.195	55.4377
625.247	47.8883
625.299	45.6877
625.351	47.0859
625.403	50.9685
625.455	55.2205
625.506	48.4999
625.558	51.4968
625.61	53.931
625.662	53.11
625.714	48.7237
625.766	56.1671
625.818	48.0285
625.87	53.6214
625.922	54.6562
625.974	55.6895
626.026	55.2513
626.078	54.5264
626.13	54.7086
626.182	44.4806
626.234	53.9324
626.286	53.4047
626.337	50.2042
626.389	44.9212
626.441	52.5318
626.493	52.558
626.545	51.1029
626.597	48.8177
626.649	47.6151
626.701	50.5517
626.753	50.1066
626.805	54.1097
626.857	53.6732
626.909	48.0171
626.961	50.11
627.013	49.7316
627.064	49.0018
627.116	49.0539
627.168	56.4384
627.22	51.7611
627.272	55.2705
627.324	54.1732
627.376	47.3412
627.428	50.8996
627.48	56.1958
627.532	60.6474
627.584	55.3502
627.636	53.5398
627.688	51.7217
627.739	53.8504
627.791	53.9695
627.843	52.2461
627.895	53.5714
627.947	48.1455
627.999	59.0796
628.051	52.9409
628.103	50.2017
628.155	50.3126
628.207	58.4241
628.259	55.0734
628.311	56.3038
628.362	53.2302
628.414	52.563
628.466	53.6147
628.518	59.0206
628.57	56.3092
628.622	53.6966
628.674	54.9458
628.726	52.9943
628.778	51.8729
628.83	56.663
628.882	54.2744
628.933	53.5837
628.985	53.6956
629.037	51.4544
629.089	51.9338
629.141	55.2061
629.193	55.3134
629.245	51.4692
629.297	47.6905
629.349	48.2637
629.401	54.9566
629.452	49.4937
629.504	54.8742
629.556	49.8547
629.608	49.8987
629.66	57.2857
629.712	56.2376
629.764	62.0884
629.816	56.7787
629.868	60.4827
629.919	55.8071
629.971	53.9794
630.023	61.4882
630.075	62.3719
630.127	53.6729
630.179	54.4198
630.231	55.8104
630.283	53.0014
630.335	54
630.387	50.7115
630.438	50.867
630.49	54.071
630.542	56.1872
630.594	50.6701
630.646	51.5122
630.698	60.7005
630.75	57.9704
630.802	59.9778
630.854	50.6492
630.905	50.1071
630.957	54.1454
631.009	57.7373
631.061	55.8485
631.113	58.5668
631.165	65.1542
631.217	59.6823
631.269	56.7517
631.32	59.9951
631.372	60.7702
631.424	66.5745
631.476	56.2291
631.528	61.5551
631.58	61.9178
631.632	60.6798
631.684	58.6798
631.735	58.7192
631.787	58.1763
631.839	57.4468
631.891	59.4708
631.943	45.5709
631.995	57.1885
632.047	56.2658
632.099	59.9851
632.15	58.7627
632.202	53.3054
632.254	54.9048
632.306	56.9154
632.358	61.0137
632.41	61.8587
632.462	61.299
632.514	52.9329
632.565	56.4126
632.617	54.0401
632.669	68.2078
632.721	60.359
632.773	62.8471
632.825	52.1133
632.877	52.7349
632.928	60.4559
632.98	64.8394
633.032	58.5296
633.084	67.2251
633.136	58.2291
633.188	59.3496
633.24	50.3103
633.291	50.6335
633.343	59.6167
633.395	52.5517
633.445	66
633.497	58
633.549	72
633.601	70
633.653	66
633.706	56
633.758	58
633.81	58
633.862	60
633.914	62
633.966	68
634.018	62
634.07	50
634.122	64
634.174	68
634.226	56
634.278	50
634.33	56
634.383	60
634.435	60
634.487	56
634.539	58
634.591	64
634.643	58
634.695	66
634.747	58
634.799	70
634.851	64
634.903	58
634.955	58
635.007	58
635.059	60
635.111	50
635.164	62
635.216	62
635.268	54
635.32	56
635.372	58
635.424	64
635.476	56
635.528	58
635.58	68
635.632	62
635.684	62
635.736	58
635.788	60
635.84	68
635.892	62
635.944	64
635.996	68
636.049	64
636.101	70
636.153	62
636.205	60
636.257	64
636.309	54
636.361	62
636.413	62
636.465	68
636.517	64
636.569	66
636.621	56
636.673	62
636.725	56
636.777	60
636.829	60
636.881	50
636.933	62
636.985	60
637.037	66
637.09	72
637.142	58
637.194	58
637.246	66
637.298	62
637.35	56
637.402	66
637.454	56
637.506	70
637.558	76
637.61	66
637.662	60
637.714	58
637.766	54
637.818	62
637.87	64
637.922	58
637.974	62
638.026	56
638.078	62
638.13	48
638.182	56
638.234	68
638.286	64
638.339	62
638.391	58
638.443	64
638.495	56
638.547	62
638.599	60
638.651	68
638.703	66
638.755	58
638.807	62
638.859	80
638.911	66
638.963	72
639.015	58
639.067	70
639.119	66
639.171	52
639.223	62
639.275	70
639.327	66
639.379	62
639.431	70
639.483	68
639.535	62
639.587	60
639.639	72
639.691	72
639.743	68
639.795	52
639.847	64
639.899	66
639.951	70
640.003	52
640.055	60
640.107	66
640.159	54
640.211	64
640.263	70
640.315	60
640.367	54
640.419	62
640.471	62
640.524	66
640.576	64
640.628	62
640.68	62
640.732	64
640.784	68
640.836	62
640.888	68
640.94	56
640.992	72
641.044	62
641.096	62
641.148	56
641.2	66
641.252	62
641.304	56
641.356	68
641.408	68
641.46	60
641.512	62
641.564	60
641.616	62
641.668	66
641.72	54
641.772	66
641.824	72
641.876	68
641.928	68
641.98	66
642.032	70
642.084	58
642.136	64
642.188	64
642.24	62
642.292	64
642.344	64
642.396	60
642.448	74
642.5	58
642.552	64
642.604	62
642.656	66
642.708	64
642.76	66
642.812	56
642.864	54
642.916	54
642.968	70
643.02	78
643.072	54
643.124	62
643.176	66
643.228	72
643.28	54
643.332	58
643.384	64
643.436	70
643.488	68
643.54	64
643.591	64
643.643	68
643.695	74
643.747	58
643.799	58
643.851	72
643.903	72
643.955	64
644.007	66
644.059	64
644.111	72
644.163	56
644.215	72
644.267	60
644.319	56
644.371	76
644.423	60
644.475	60
644.527	68
644.579	64
644.631	64
644.683	76
644.735	64
644.787	70
644.839	56
644.891	58
644.943	64
644.995	56
645.047	64
645.099	54
645.151	66
645.203	56
645.255	72
645.307	58
645.359	62
645.411	70
645.463	54
645.515	64
645.567	58
645.619	58
645.671	70
645.722	74
645.774	62
645.826	64
645.878	76
645.93	58
645.982	64
646.034	68
646.086	58
646.138	72
646.19	64
646.242	48
646.294	58
646.346	56
646.398	64
646.45	52
646.502	64
646.554	64
646.606	64
646.658	64
646.71	64
646.762	64
646.814	58
646.866	72
646.918	76
646.969	70
647.021	52
647.073	64
647.125	62
647.177	58
647.229	62
647.281	62
647.333	62
647.385	62
647.437	68
647.489	68
647.541	66
647.593	62
647.645	64
647.697	66
647.749	64
647.801	60
647.853	58
647.905	70
647.956	58
648.008	58
648.06	64
648.112	66
648.164	64
648.216	68
648.268	60
648.32	66
648.372	62
648.424	68
648.476	56
648.528	64
648.58	60
648.632	60
648.684	70
648.736	72
648.788	74
648.839	60
648.891	76
648.943	68
648.995	58
649.047	58
649.099	64
649.151	68
649.203	62
649.255	58
649.307	64
649.359	60
649.411	68
649.463	64
649.515	58
649.566	68
649.618	68
649.67	60
649.722	68
649.774	62
649.826	70
649.878	70
649.93	52
649.982	64
650.034	72
650.086	70
650.138	66
650.19	62
650.241	58
650.293	56
650.345	72
650.397	60
650.449	66
650.501	58
650.553	70
650.605	50
650.657	60
650.709	58
650.761	54
650.813	72
650.865	62
650.916	50
650.968	62
651.02	72
651.072	70
651.124	66
651.176	54
651.228	72
651.28	58
651.332	62
651.384	68
651.435	58
651.487	62
651.539	68
651.591	62
651.643	62
651.695	60
651.747	60
651.799	66
651.851	64
651.903	66
651.955	64
652.006	68
652.058	70
652.11	56
652.162	66
652.214	58
652.266	66
652.318	60
652.37	70
652.422	64
652.474	60
652.525	64
652.577	72
652.629	58
652.681	52
652.733	66
652.785	56
652.837	62
652.889	68
652.941	60
652.992	62
653.044	74
653.096	60
653.148	66
653.2	64
653.252	60
653.304	68
653.356	62
653.408	62
653.46	66
653.511	58
653.563	58
653.615	70
653.667	64
653.719	68
653.771	70
653.823	66
653.875	68
653.927	62
653.978	70
654.03	56
654.082	68
654.134	72
654.186	60
654.238	54
654.29	68
654.342	70
654.393	70
654.445	68
654.497	66
654.549	68
654.601	70
654.653	54
654.705	60
654.757	62
654.808	62
654.86	66
654.912	68
654.964	60
655.016	70
655.068	56
655.12	64
655.172	68
655.223	54
655.275	60
655.327	62
655.379	56
655.431	72
655.483	64
655.535	62
655.586	58
655.638	66
655.69	68
655.742	52
655.794	68
655.846	60
655.898	60
655.95	58
656.001	62
656.053	70
656.105	64
656.157	64
656.209	68
656.261	64
656.313	62
656.364	56
656.416	70
656.468	64
656.52	54
656.572	68
656.624	58
656.676	58
656.727	58
656.779	68
656.831	64
656.883	62
656.935	72
656.987	70
657.038	68
657.09	62
657.142	66
657.194	62
657.246	58
657.298	72
657.35	62
657.401	66
657.453	66
657.505	60
657.557	68
657.609	68
657.661	66
657.712	56
657.764	66
657.816	58
657.868	60
657.92	76
657.972	60
658.024	62
658.075	58
658.127	70
658.179	58
658.231	60
658.283	72
658.335	66
658.386	70
658.438	72
658.49	68
658.542	68
658.594	74
658.646	64
658.697	64
658.749	60
658.801	76
658.853	64
658.905	58
658.957	72
659.008	64
659.06	62
659.112	64
659.164	74
659.216	64
659.268	58
659.319	64
659.371	66
659.423	66
659.475	68
659.527	64
659.578	62
659.63	68
659.682	60
659.734	64
659.786	50
659.838	60
659.889	60
659.941	70
659.993	70
660.045	66
660.097	74
660.149	78
660.2	52
660.252	70
660.304	56
660.356	64
660.408	68
660.459	72
660.511	56
660.563	62
660.615	64
660.667	64
660.719	68
660.77	62
660.822	62
660.874	62
660.926	78
660.978	76
661.029	64
661.081	66
661.133	60
661.185	64
661.237	64
661.288	64
661.34	64
661.392	64
661.444	62
661.496	68
661.547	68
661.599	72
661.651	66
661.703	58
661.755	62
661.806	60
661.858	56
661.91	62
661.962	60
662.014	74
662.065	56
662.117	74
662.169	60
662.221	64
662.273	66
662.324	68
662.376	72
662.428	68
662.48	64
662.532	66
662.583	70
662.635	60
662.687	64
662.739	68
662.791	64
662.842	64
662.894	64
662.946	68
662.998	68
663.049	56
663.101	72
663.153	62
663.205	70
663.257	64
663.308	64
663.36	62
663.412	68
663.464	58
663.516	70
663.567	64
663.619	72
663.671	80
663.723	64
663.774	52
663.826	58
663.878	64
663.93	62
663.982	70
664.033	66
664.085	66
664.137	52
664.189	64
664.24	64
664.292	64
664.344	66
664.396	54
664.448	62
664.499	72
664.551	72
664.603	68
664.655	66
664.706	60
664.758	58
664.81	66
664.862	64
664.913	64
664.965	70
665.017	66
665.069	68
665.12	72
665.172	62
665.224	66
665.276	72
665.328	70
665.379	72
665.431	70
665.483	76
665.535	72
665.586	58
665.638	62
665.69	66
665.742	75.94
665.793	59.9537
665.845	69.9824
665.897	60.175
665.949	66.1307
666	64.022
666.052	64.2914
666.104	75.5236
666.156	71.726
666.207	67.905
666.259	65.7228
666.311	69.5258
666.363	66.7965
666.414	63.8829
666.466	73.3805
666.518	71.2687
666.57	72.0219
666.621	68.2268
666.673	59.11
666.725	70.1643
666.777	64.304
666.828	58.86
666.88	70.9511
666.932	65.7244
666.984	79.6522
667.035	57.1825
667.087	73.489
667.139	69.8291
667.191	55.5355
667.242	62.768
667.294	68.9734
667.346	62.2032
667.398	60.7699
667.449	60.3934
667.501	75.3853
667.553	61.5785
667.604	63.095
667.656	65.5091
667.708	60.974
667.76	62.4892
667.811	68.4145
667.863	65.3479
667.915	70.6206
667.967	63.0821
668.018	63.0056
668.07	60.6956
668.122	62.3404
668.174	65.0382
668.225	60.3211
668.277	60.5729
668.329	62.505
668.38	77.365
668.432	64.3708
668.484	66.7131
668.536	74.7812
668.587	59.6187
668.639	61.3444
668.691	68.85
668.743	63.5687
668.794	64.3845
668.846	68.7653
668.898	63.0298
668.949	64.4186
669.001	70.7181
669.053	61.1066
669.105	63.0537
669.156	67.1389
669.208	65.325
669.26	64.8771
669.311	68.12
669.363	71.1103
669.415	62.92
669.467	65.9781
669.518	64.6938
669.57	64.4579
669.622	67.0573
669.673	71.6782
669.725	65.0837
669.777	64.1256
669.829	64.2325
669.88	72.3427
669.932	67.1211
669.984	68.3461
670.035	72.4566
670.087	72.4826
670.139	67.4766
670.191	67.2942
670.242	65.0827
670.294	64.9159
670.346	69.4184
670.397	62.715
670.449	66.4052
670.501	66.7043
670.553	76.3179
670.604	76.3347
670.656	67.1319
670.708	70.0397
670.759	65.8881
670.811	59.9468
670.863	65.5405
670.914	71.4527
670.966	68.4415
671.018	70.0392
671.07	69.5835
671.121	64.6273
671.173	69.3433
671.225	69.4431
671.276	67.5498
671.328	71.7263
671.38	63.4139
671.431	69.616
671.483	72.3766
671.535	68.6168
671.586	66.9837
671.638	65.5235
671.69	68.6474
671.742	71.997
671.793	62.9881
671.845	66.6847
671.897	68.4269
671.948	64.8307
672	69.8566
672.052	70.775
672.103	71.7952
672.155	66.9755
672.207	70.7867
672.258	67.3
672.31	67.275
672.362	66.3473
672.414	67.5471
672.465	65.3527
672.517	65.4878
672.569	73.6066
672.62	74.4922
672.672	72.795
672.724	74.554
672.775	70.2207
672.827	70.5968
672.879	70.2779
672.93	66.3305
672.982	68.3461
673.034	71.9367
673.085	71.3809
673.137	72.26
673.189	64.3062
673.24	69.576
673.292	74.1536
673.344	65.1325
673.395	64.806
673.447	60.1921
673.499	65.937
673.55	65.4595
673.602	67.0329
673.654	67.3498
673.705	71.1288
673.757	68.3216
673.809	61.8531
673.86	66.4917
673.912	76.8188
673.964	68.38
674.015	67.6601
674.067	61.5388
674.119	63.8968
674.17	67.7797
674.222	64.7242
674.274	67.3609
674.325	65.2931
674.377	62.4235
674.429	66.9616
674.48	62.1549
674.532	67.9128
674.584	67.2268
674.635	68.7052
674.687	73.6919
674.739	76.2499
674.79	60.6703
674.842	61.6308
674.894	67.775
674.945	69.0284
674.997	78.199
675.049	63.95
675.1	62.9921
675.152	68.8739
675.203	70.8074
675.255	64.9642
675.307	67.5633
675.358	62.54
675.41	63.3971
675.462	72.5585
675.513	74.7159
675.565	64.2224
675.617	68.2548
675.668	73.1975
675.72	68.8132
675.772	73.3064
675.823	67.6071
675.875	66.2647
675.927	68.6884
675.978	75.97
676.03	75.5716
676.078	70
676.13	78
676.182	64
676.234	72
676.286	70
676.338	72
676.389	76
676.441	62
676.493	56
676.545	76
676.597	62
676.649	72
676.701	62
676.752	62
676.804	66
676.856	74
676.908	70
676.96	64
677.012	66
677.064	54
677.116	76
677.167	62
677.219	66
677.271	74
677.323	74
677.375	72
677.427	70
677.479	64
677.53	74
677.582	76
677.634	72
677.686	70
677.738	68
677.79	62
677.842	58
677.893	62
677.945	76
677.997	72
678.049	62
678.101	70
678.153	72
678.205	68
678.256	72
678.308	64
678.36	70
678.412	68
678.464	74
678.516	70
678.568	74
678.619	66
678.671	72
678.723	76
678.775	74
678.827	74
678.879	74
678.93	76
678.982	68
679.034	74
679.086	70
679.138	84
679.19	60
679.242	60
679.293	56
679.345	80
679.397	68
679.449	68
679.501	66
679.553	74
679.604	78
679.656	58
679.708	70
679.76	62
679.812	70
679.864	68
679.915	74
679.967	76
680.019	74
680.071	60
680.123	74
680.175	74
680.227	74
680.278	62
680.33	60
680.382	62
680.434	70
680.486	72
680.537	64
680.589	66
680.641	66
680.693	68
680.745	68
680.797	78
680.849	62
680.9	64
680.952	76
681.004	72
681.056	66
681.108	74
681.159	68
681.211	76
681.263	66
681.315	76
681.367	72
681.419	66
681.47	64
681.522	74
681.574	88
681.626	80
681.678	66
681.729	70
681.781	64
681.833	70
681.885	64
681.937	76
681.989	62
682.04	64
682.092	70
682.144	62
682.196	68
682.248	64
682.299	74
682.351	68
682.403	68
682.455	68
682.507	68
682.559	70
682.61	80
682.662	76
682.714	66
682.766	76
682.818	64
682.869	70
682.921	86
682.973	72
683.025	70
683.077	72
683.128	70
683.18	60
683.232	66
683.284	72
683.336	66
683.388	66
683.439	74
683.491	70
683.543	70
683.595	56
683.646	72
683.698	72
683.75	80
683.802	74
683.854	72
683.906	66
683.957	80
684.009	60
684.061	62
684.113	72
684.164	74
684.216	62
684.268	74
684.32	68
684.372	70
684.423	70
684.475	76
684.527	70
684.579	74
684.631	66
684.682	64
684.734	54
684.786	72
684.838	66
684.89	78
684.941	76
684.993	64
685.045	66
685.097	76
685.148	80
685.2	78
685.252	80
685.304	74
685.356	62
685.407	82
685.459	82
685.511	64
685.563	72
685.615	74
685.666	68
685.718	78
685.77	78
685.822	66
685.873	78
685.925	84
685.977	66
686.029	70
686.081	74
686.132	72
686.184	72
686.236	74
686.288	72
686.339	70
686.391	70
686.443	74
686.495	70
686.547	68
686.598	72
686.65	76
686.702	64
686.754	64
686.805	62
686.857	70
686.909	68
686.961	72
687.013	74
687.064	64
687.116	62
687.168	60
687.22	64
687.271	76
687.323	76
687.375	70
687.427	68
687.478	70
687.53	74
687.582	64
687.634	64
687.685	68
687.737	70
687.789	68
687.841	74
687.892	72
687.944	68
687.996	84
688.048	76
688.099	76
688.151	70
688.203	76
688.255	70
688.307	64
688.358	60
688.41	66
688.462	72
688.514	72
688.565	70
688.617	78
688.669	66
688.721	70
688.772	62
688.824	74
688.876	84
688.928	74
688.979	72
689.031	74
689.083	72
689.135	82
689.186	64
689.238	70
689.29	70
689.341	62
689.393	72
689.445	66
689.497	62
689.548	72
689.6	66
689.652	70
689.704	72
689.755	82
689.807	68
689.859	74
689.911	76
689.962	70
690.014	70
690.066	72
690.118	68
690.169	84
690.221	68
690.273	66
690.325	72
690.376	70
690.428	70
690.48	70
690.531	64
690.583	62
690.635	74
690.687	82
690.738	68
690.79	68
690.842	74
690.894	62
690.945	74
690.997	72
691.049	60
691.1	72
691.152	68
691.204	68
691.256	72
691.307	72
691.359	66
691.411	66
691.463	70
691.514	72
691.566	68
691.618	70
691.669	68
691.721	68
691.773	54
691.825	72
691.876	66
691.928	60
691.98	58
692.031	70
692.083	72
692.135	68
692.187	76
692.238	60
692.29	68
692.342	70
692.393	76
692.445	76
692.497	56
692.549	66
692.6	62
692.652	52
692.704	64
692.755	66
692.807	74
692.859	64
692.911	74
692.962	64
693.014	64
693.066	74
693.117	74
693.169	74
693.221	62
693.272	66
693.324	68
693.376	72
693.428	60
693.479	64
693.531	68
693.583	76
693.634	76
693.686	74
693.738	68
693.789	68
693.841	68
693.893	70
693.945	64
693.996	56
694.048	68
694.1	68
694.151	62
694.203	72
694.255	62
694.306	64
694.358	78
694.41	58
694.461	64
694.513	74
694.565	78
694.617	68
694.668	60
694.72	60
694.772	72
694.823	70
694.875	58
694.927	74
694.978	68
695.03	68
695.082	78
695.133	66
695.185	60
695.237	70
695.289	58
695.34	68
695.392	66
695.444	60
695.495	74
695.547	72
695.599	52
695.65	70
695.702	54
695.754	66
695.805	70
695.857	68
695.909	74
695.96	70
696.012	66
696.064	70
696.115	68
696.167	62
696.219	60
696.27	64
696.322	66
696.374	70
696.425	66
696.477	72
696.529	62
696.58	74
696.632	70
696.684	58
696.735	68
696.787	70
696.839	62
696.89	64
696.942	68
696.994	68
697.045	62
697.097	74
697.149	64
697.2	72
697.252	72
697.304	60
697.355	66
697.407	56
697.459	62
697.51	72
697.562	70
697.614	68
697.665	60
697.717	62
697.769	70
697.82	62
697.872	62
697.924	82
697.975	64
698.027	70
698.078	70
698.13	52
698.182	66
698.233	62
698.285	78
698.337	76
698.388	66
698.44	66
698.492	64
698.543	74
698.595	54
698.647	74
698.698	60
698.75	56
698.802	64
698.853	60
698.905	64
698.956	58
699.008	64
699.06	64
699.111	64
699.163	66
699.215	60
699.266	58
699.318	62
699.37	66
699.421	74
699.473	54
699.525	68
699.576	64
699.628	64
699.679	68
699.731	70
699.783	66
699.834	54
699.886	54
699.938	68
699.989	62
700.041	62
700.093	62
700.144	66
700.196	66
700.247	64
700.299	74
700.351	62
700.402	60
700.454	66
700.505	56
700.557	60
700.609	60
700.66	66
700.712	66
700.764	60
700.815	62
700.867	64
700.919	66
700.97	62
701.022	54
701.073	52
701.125	62
701.177	62
701.228	56
701.28	64
701.331	54
701.383	62
701.435	68
701.486	62
701.538	62
701.59	64
701.641	68
701.693	54
701.744	68
701.796	66
701.848	74
701.899	56
701.951	66
702.002	66
702.054	68
702.106	66
702.157	52
702.209	62
702.26	52
702.312	56
702.364	60
702.415	56
702.467	58
702.518	56
702.57	60
702.622	64
702.673	50
702.725	68
702.776	64
702.828	68
702.88	62
702.931	50
702.983	54
703.034	62
703.086	54
703.138	56
703.189	58
703.241	60
703.292	64
703.344	52
703.396	62
703.447	58
703.499	54
703.55	68
703.602	58
703.654	58
703.705	46
703.757	62
703.808	54
703.86	64
703.912	64
703.963	64
704.015	42
704.066	56
704.118	56
704.169	70
704.221	66
704.273	62
704.324	56
704.376	48
704.427	56
704.479	56
704.531	60
704.582	62
704.634	60
704.685	62
704.737	66
704.788	50
704.84	64
704.892	58
704.943	60
704.995	62
705.046	70
705.098	66
705.149	52
705.201	66
705.253	56
705.304	64
705.356	52
705.407	64
705.459	54
705.51	66
705.562	44
705.614	56
705.665	56
705.717	54
705.768	68
705.82	52
705.871	58
705.923	62
705.975	60
706.026	60
706.078	42
706.129	52
706.181	46
706.232	50
706.284	56
706.336	58
706.387	56
706.439	54
706.49	62
706.542	54
706.593	50
706.645	56
706.696	44
706.748	58
706.8	50
706.851	64
706.903	58
706.954	56
707.006	48
707.057	62
707.109	58
707.16	62
707.212	60
707.264	62
707.315	66
707.367	48
707.418	52
707.47	46
707.521	56
707.573	50
707.624	60
707.676	52
707.727	50
707.779	52
707.831	64
707.882	56
707.934	70
707.985	60
708.037	54
708.088	52
708.14	54
708.191	62
708.243	53.9944
708.294	48.0101
708.346	54.0425
708.398	50.1222
708.449	50.1861
708.501	53.9715
708.552	61.6656
708.604	50.2593
708.655	48.4606
708.707	57.9525
708.758	52.2137
708.81	55.5082
708.861	54.1025
708.913	61.0385
708.964	53.4927
709.016	52.8046
709.067	52.0705
709.119	52.3082
709.17	55.8177
709.222	43.3086
709.274	56.6462
709.325	54.9353
709.377	50.802
709.428	55.8547
709.48	56.1099
709.531	55.4975
709.583	53.6031
709.634	49.5954
709.686	58.9696
709.737	52.5347
709.789	50.7413
709.84	53.1007
709.892	52.2726
709.943	53.7649
709.995	64.2532
710.046	47.2107
710.098	52.6086
710.149	59.7401
710.201	57.0458
710.252	57.9545
710.304	60.3964
710.355	55.7686
710.407	50.174
710.458	59.3137
710.51	53.9754
710.562	54.0408
710.613	43.5851
710.665	53.7638
710.716	54.7553
710.768	59.2587
710.819	53.3267
710.871	54.2689
710.922	48.9972
710.974	55.3347
711.025	47.4631
711.077	53.1885
711.128	48.8058
711.18	53.4335
711.231	49.1527
711.283	59.0869
711.334	49.7727
711.386	53.4713
711.437	59.7964
711.489	54
711.54	54.0105
711.592	52.5721
711.643	50.6575
711.695	53.9969
711.746	56.0055
711.798	58.6847
711.849	58.1282
711.901	55.3904
711.952	54.59
712.004	50.7241
712.055	51.8919
712.107	46.642
712.158	51.3139
712.21	54.2192
712.261	51.1856
712.313	47.5665
712.364	49.2565
712.416	54.5906
712.467	49.0942
712.519	49.397
712.57	50.0659
712.622	48.0706
712.673	52.997
712.724	51.2183
712.776	43.1252
712.827	51.4487
712.879	53.8351
712.93	43.1005
712.982	51.5154
713.033	44.8148
713.085	50.4842
713.136	51.4166
713.188	53.4932
713.239	52.3261
713.291	53.6261
713.342	53.2663
713.394	53.4022
713.445	44.9351
713.497	46.1018
713.548	43.2815
713.6	49.8853
713.651	53.1633
713.703	49.99
713.754	51.2674
713.806	54.1379
713.857	49.7952
713.909	53.1826
713.96	53.6922
714.011	54.0181
714.063	55.7635
714.114	49.58
714.166	46.8621
714.217	50.4189
714.269	54.8424
714.32	50.6051
714.372	47.58
714.423	49.8666
714.475	44.3877
714.526	51.3286
714.578	54.1191
714.629	48.2271
714.681	49.1548
714.732	50.6808
714.784	42.4507
714.835	45.0985
714.886	51.283
714.938	49.6531
714.989	48.4362
715.041	49.6224
715.092	51.9195
715.144	51.1816
715.195	54.9187
715.247	48.876
715.298	48.4302
715.35	47.7107
715.401	50.3253
715.452	48.7592
715.504	46.7783
715.555	48.7429
715.607	51.4642
715.658	42.3299
715.71	49.6721
715.761	52.1108
715.813	45.7541
715.864	48.2369
715.916	55.4315
715.967	49.7165
716.018	47.4012
716.07	55.0369
716.121	47.9717
716.173	47.4321
716.224	49.2263
716.276	47.0837
716.327	51.2406
716.379	57.0837
716.43	52.885
716.481	46.9524
716.533	41.8206
716.584	45.1315
716.636	51.2963
716.687	48.1469
716.739	46.5758
716.79	47.6023
716.841	50.2512
716.893	50.0835
716.944	50.8951
716.996	49.0052
717.047	49.0208
717.099	48.7834
717.15	51.1281
717.202	55.843
717.253	55.9854
717.304	50.6043
717.356	49.1287
717.407	44.283
717.459	40.9261
717.51	42.3638
717.562	44.9289
717.613	47.8629
717.664	48.9789
717.716	48.4101
717.767	52.1426
717.819	48.8086
717.87	45.1659
717.922	43.169
717.973	45.2741
718.024	48.2463
718.076	44.2819
718.127	47.6256
718.179	57.0997
718.23	50.5054
718.281	45.3747
718.333	45.5538
718.384	41.4288
718.436	43.445
718.487	48.7429
718.539	49.3257
718.59	49.5642
718.641	52.746
718.673	54
718.725	52
718.777	46
718.828	50
718.88	52
718.932	44
718.983	56
719.035	50
719.087	50
719.138	38
719.19	56
719.242	48
719.293	46
719.345	52
719.397	36
719.448	44
719.5	46
719.552	48
719.603	40
719.655	46
719.706	44
719.758	50
719.81	44
719.861	42
719.913	58
719.965	40
720.016	50
720.068	40
720.12	46
720.171	44
720.223	42
720.275	46
720.326	52
720.378	44
720.43	46
720.481	48
720.533	54
720.584	44
720.636	50
720.688	52
720.739	46
720.791	50
720.843	36
720.894	56
720.946	48
720.997	42
721.049	46
721.101	48
721.152	40
721.204	36
721.256	54
721.307	48
721.359	50
721.411	38
721.462	44
721.514	54
721.565	48
721.617	52
721.669	48
721.72	46
721.772	48
721.824	38
721.875	44
721.927	44
721.978	44
722.03	40
722.082	36
722.133	48
722.185	46
722.237	42
722.288	40
722.34	44
722.391	44
722.443	44
722.495	44
722.546	46
722.598	40
722.65	50
722.701	50
722.753	38
722.804	46
722.856	44
722.908	40
722.959	42
723.011	28
723.063	48
723.114	36
723.166	60
723.217	44
723.269	44
723.321	40
723.372	46
723.424	50
723.475	42
723.527	48
723.579	48
723.63	48
723.682	40
723.733	40
723.785	42
723.837	42
723.888	46
723.94	50
723.991	52
724.043	44
724.095	48
724.146	38
724.198	38
724.25	50
724.301	40
724.353	44
724.404	40
724.456	32
724.508	46
724.559	44
724.611	38
724.662	34
724.714	46
724.766	40
724.817	46
724.869	46
724.92	48
724.972	36
725.023	40
725.075	44
725.127	46
725.178	50
725.23	38
725.281	46
725.333	40
725.385	40
725.436	46
725.488	40
725.539	52
725.591	42
725.643	34
725.694	50
725.746	40
725.797	42
725.849	46
725.901	38
725.952	42
726.004	46
726.055	40
726.107	40
726.158	50
726.21	40
726.262	44
726.313	40
726.365	52
726.416	40
726.468	44
726.519	38
726.571	40
726.623	42
726.674	42
726.726	40
726.777	44
726.829	42
726.881	46
726.932	38
726.984	44
727.035	50
727.087	46
727.138	40
727.19	40
727.242	38
727.293	44
727.345	38
727.396	48
727.448	42
727.499	34
727.551	42
727.603	42
727.654	50
727.706	54
727.757	38
727.809	34
727.86	40
727.912	34
727.964	36
728.015	46
728.067	40
728.118	44
728.17	44
728.221	38
728.273	40
728.324	42
728.376	38
728.428	42
728.479	44
728.531	32
728.582	34
728.634	28
728.685	38
728.737	36
728.788	46
728.84	46
728.892	38
728.943	44
728.995	42
729.046	38
729.098	40
729.149	42
729.201	44
729.252	34
729.304	42
729.356	34
729.407	42
729.459	50
729.51	36
729.562	32
729.613	36
729.665	32
729.716	46
729.768	36
729.819	42
729.871	44
729.923	28
729.974	44
730.026	32
730.077	30
730.129	42
730.18	40
730.232	36
730.283	34
730.335	48
730.386	42
730.438	42
730.49	38
730.541	44
730.593	48
730.644	32
730.696	42
730.747	36
730.799	36
730.85	40
730.902	40
730.953	48
731.005	30
731.056	38
731.108	44
731.159	40
731.211	38
731.262	40
731.314	40
731.366	42
731.417	32
731.469	42
731.52	34
731.572	38
731.623	42
731.675	34
731.726	36
731.778	30
731.829	40
731.881	34
731.932	34
731.984	48
732.035	40
732.087	34
732.138	46
732.19	40
732.241	40
732.293	36
732.344	38
732.396	44
732.448	36
732.499	40
732.551	36
732.602	38
732.654	32
732.705	48
732.757	40
732.808	40
732.86	30
732.911	40
732.963	36
733.014	40
733.066	32
733.117	34
733.169	40
733.22	34
733.272	40
733.323	34
733.375	34
733.426	42
733.478	32
733.529	36
733.581	36
733.632	44
733.684	36
733.735	28
733.787	30
733.838	42
733.89	42
733.941	36
733.993	34
734.044	38
734.096	38
734.147	40
734.199	38
734.25	32
734.302	34
734.353	40
734.405	28
734.456	36
734.508	34
734.559	30
734.611	40
734.662	38
734.714	46
734.765	36
734.817	36
734.868	30
734.92	38
734.971	36
735.023	42
735.074	38
735.126	30
735.177	42
735.229	34
735.28	42
735.332	30
735.383	34
735.435	32
735.486	42
735.537	42
735.589	44
735.64	36
735.692	38
735.743	28
735.795	36
735.846	42
735.898	36
735.949	32
736.001	36
736.052	42
736.104	38
736.155	36
736.207	32
736.258	34
736.31	28
736.361	40
736.413	32
736.464	40
736.516	38
736.567	32
736.618	48
736.67	38
736.721	46
736.773	34
736.824	36
736.876	40
736.927	48
736.979	32
737.03	32
737.082	38
737.133	40
737.185	38
737.236	36
737.288	30
737.339	40
737.391	34
737.442	34
737.493	44
737.545	34
737.596	34
737.648	42
737.699	38
737.751	42
737.802	36
737.854	42
737.905	38
737.957	38
738.008	32
738.059	38
738.111	32
738.162	36
738.214	42
738.265	34
738.317	36
738.368	34
738.42	40
738.471	34
738.523	38
738.574	36
738.625	38
738.677	40
738.728	28
738.78	28
738.831	36
738.883	40
738.934	42
738.986	38
739.037	40
739.088	26
739.14	38
739.191	34
739.243	48
739.294	26
739.346	34
739.397	28
739.448	36
739.5	44
739.551	42
739.603	42
739.654	34
739.706	38
739.757	36
739.809	32
739.86	36
739.911	36
739.963	34
740.014	32
740.066	40
740.117	38
740.169	44
740.22	34
740.271	32
740.323	36
740.374	38
740.426	28
740.477	32
740.529	30
740.58	26
740.631	36
740.683	38
740.734	36
740.786	42
740.837	50
740.889	38
740.94	36
740.991	30
741.043	26
741.094	44
741.146	36
741.197	40
741.249	38
741.3	28
741.351	36
741.403	36
741.454	34
741.506	32
741.557	40
741.608	32
741.66	44
741.711	38
741.763	38
741.814	38
741.866	34
741.917	38
741.968	26
742.02	40
742.071	38
742.123	34
742.174	30
742.225	40
742.277	34
742.328	30
742.38	34
742.431	34
742.482	28
742.534	44
742.585	32
742.637	32
742.688	38
742.739	40
742.791	32
742.842	42
742.894	34
742.945	32
742.996	36
743.048	34
743.099	36
743.151	26
743.202	34
743.253	42
743.305	34
743.356	40
743.408	30
743.459	22
743.51	32
743.562	36
743.613	40
743.665	42
743.716	40
743.767	38
743.819	40
743.87	30
743.922	36
743.973	26
744.024	32
744.076	38
744.127	42
744.178	40
744.23	36
744.281	36
744.333	36
744.384	44
744.435	34
744.487	30
744.538	30
744.59	38
744.641	36
744.692	30
744.744	36
744.795	40
744.846	34
744.898	38
744.949	34
745.001	32
745.052	36
745.103	40
745.155	44
745.206	32
745.257	38
745.309	26
745.36	28
745.412	32
745.463	28
745.514	34
745.566	30
745.617	36
745.668	40
745.72	30
745.771	42
745.823	30
745.874	32
745.925	32
745.977	36
746.028	30
746.079	26
746.131	42
746.182	30
746.233	28
746.285	42
746.336	28
746.388	32
746.439	38
746.49	38
746.542	40
746.593	32
746.644	34
746.696	32
746.747	36
746.798	30
746.85	34
746.901	36
746.952	30
747.004	32
747.055	26
747.106	28
747.158	32
747.209	34
747.26	36
747.312	36
747.363	26
747.415	34
747.466	34
747.517	30
747.569	32
747.62	32
747.671	34
747.723	32
747.774	34
747.825	32
747.877	30
747.928	40
747.979	22
748.031	32
748.082	32
748.133	24
748.185	26
748.236	36
748.287	28
748.339	40
748.39	32
748.441	32
748.493	30
748.544	36
748.595	26
748.647	32
748.698	34
748.749	32
748.801	34
748.852	32
748.903	38
748.955	36
749.006	34
749.057	24
749.109	32
749.16	34
749.211	34
749.263	34
749.314	26
749.365	34
749.417	38
749.468	40
749.519	40
749.571	38
749.622	32
749.673	40
749.725	38
749.776	34
749.827	34
749.879	42
749.93	28
749.981	26
750.033	36
750.084	34
750.135	30
750.186	30
750.238	30
750.289	30
750.34	24
750.392	28
750.443	40
750.494	46
750.546	34
750.597	38
750.648	30
750.7	34
750.751	26
750.802	32
750.854	26
750.905	28
750.956	34
751.007	34
751.059	32
751.11	32
751.161	34
751.213	44
751.264	28
751.315	25
751.367	22
751.418	38
751.469	32
751.52	34
751.572	30
751.623	32
751.674	38
751.726	28
751.777	30
751.828	34
751.88	36
751.931	26
751.982	22
752.033	36
752.085	30
752.136	26
752.187	26
752.239	28
752.29	40
752.341	32
752.392	30
752.444	28
752.495	32
752.546	34
752.598	30
752.649	28
752.7	32
752.751	24
752.803	28
752.854	32
752.905	30
752.957	24
753.008	28
753.059	30
753.11	40
753.162	30
753.213	34
753.264	36
753.316	34
753.367	28
753.418	32
753.469	28
753.521	28
753.572	34
753.623	32
753.674	36
753.726	30
753.777	32
753.828	36
753.88	32
753.931	28
753.982	32
754.033	26
754.085	30
754.136	34
754.187	40
754.238	24
754.29	30
754.341	26
754.392	30
754.444	30
754.495	26
754.546	26
754.597	32
754.649	26
754.7	38
754.751	26
754.802	32
754.854	34
754.905	24
754.956	28
755.007	30
755.059	32
755.11	32
755.161	32
755.212	34
755.264	30
755.315	24
755.366	36
755.417	30
755.469	34
755.52	28
755.571	24
755.622	34
755.674	32
755.725	30
755.776	32
755.827	32
755.879	30
755.93	22
755.981	34
756.032	26
756.084	26
756.135	34
756.186	28
756.237	32
756.289	28
756.34	28
756.391	36
756.442	28
756.494	34
756.545	30
756.596	30
756.647	28
756.699	42
756.75	28
756.801	26
756.852	28
756.903	32
756.955	26
757.006	28
757.057	38
757.108	24
757.16	26
757.211	28
757.262	38
757.313	32
757.365	32
757.416	36
757.467	30
757.518	34
757.569	22
757.621	24
757.672	26
757.723	34
757.774	30
757.826	30
757.877	30
757.928	32
757.979	32
758.03	24
758.082	32
758.133	32
758.184	36
758.235	30
758.287	26
758.338	28
758.389	28
758.44	24
758.491	22
758.543	26
758.594	32
758.645	24
758.696	26
758.747	20
758.799	28
758.85	22
758.901	36
758.952	30
759.004	32
759.055	26
759.106	24
759.157	20
759.208	26
759.26	26
759.311	22
759.362	36
759.413	26
759.464	30
759.516	34
759.567	22
759.618	24
759.669	32
759.72	36
759.772	26
759.823	20
759.874	26
759.925	30
759.976	32
